Created as New Dataset,
cm-1,A
4000.00,0.3473
3999.00,0.3470
3998.00,0.3467
3997.00,0.3465
3996.00,0.3463
3995.00,0.3460
3994.00,0.3457
3993.00,0.3454
3992.00,0.3450
3991.00,0.3447
3990.00,0.3444
3989.00,0.3440
3988.00,0.3437
3987.00,0.3433
3986.00,0.3429
3985.00,0.3424
3984.00,0.3420
3983.00,0.3417
3982.00,0.3414
3981.00,0.3410
3980.00,0.3407
3979.00,0.3404
3978.00,0.3401
3977.00,0.3397
3976.00,0.3394
3975.00,0.3391
3974.00,0.3387
3973.00,0.3384
3972.00,0.3379
3971.00,0.3375
3970.00,0.3371
3969.00,0.3367
3968.00,0.3364
3967.00,0.3361
3966.00,0.3358
3965.00,0.3354
3964.00,0.3349
3963.00,0.3345
3962.00,0.3341
3961.00,0.3337
3960.00,0.3335
3959.00,0.3333
3958.00,0.3330
3957.00,0.3328
3956.00,0.3326
3955.00,0.3324
3954.00,0.3322
3953.00,0.3321
3952.00,0.3319
3951.00,0.3317
3950.00,0.3316
3949.00,0.3314
3948.00,0.3312
3947.00,0.3311
3946.00,0.3309
3945.00,0.3308
3944.00,0.3307
3943.00,0.3306
3942.00,0.3304
3941.00,0.3303
3940.00,0.3302
3939.00,0.3301
3938.00,0.3300
3937.00,0.3300
3936.00,0.3300
3935.00,0.3300
3934.00,0.3300
3933.00,0.3299
3932.00,0.3298
3931.00,0.3298
3930.00,0.3297
3929.00,0.3295
3928.00,0.3294
3927.00,0.3293
3926.00,0.3293
3925.00,0.3293
3924.00,0.3292
3923.00,0.3292
3922.00,0.3292
3921.00,0.3291
3920.00,0.3291
3919.00,0.3290
3918.00,0.3290
3917.00,0.3289
3916.00,0.3289
3915.00,0.3288
3914.00,0.3287
3913.00,0.3286
3912.00,0.3285
3911.00,0.3285
3910.00,0.3284
3909.00,0.3283
3908.00,0.3281
3907.00,0.3280
3906.00,0.3279
3905.00,0.3277
3904.00,0.3276
3903.00,0.3275
3902.00,0.3273
3901.00,0.3271
3900.00,0.3270
3899.00,0.3269
3898.00,0.3267
3897.00,0.3265
3896.00,0.3263
3895.00,0.3261
3894.00,0.3259
3893.00,0.3257
3892.00,0.3255
3891.00,0.3254
3890.00,0.3252
3889.00,0.3251
3888.00,0.3251
3887.00,0.3250
3886.00,0.3250
3885.00,0.3250
3884.00,0.3250
3883.00,0.3248
3882.00,0.3247
3881.00,0.3246
3880.00,0.3245
3879.00,0.3244
3878.00,0.3244
3877.00,0.3243
3876.00,0.3243
3875.00,0.3243
3874.00,0.3242
3873.00,0.3241
3872.00,0.3239
3871.00,0.3238
3870.00,0.3237
3869.00,0.3236
3868.00,0.3235
3867.00,0.3233
3866.00,0.3232
3865.00,0.3230
3864.00,0.3229
3863.00,0.3227
3862.00,0.3224
3861.00,0.3222
3860.00,0.3221
3859.00,0.3221
3858.00,0.3220
3857.00,0.3220
3856.00,0.3220
3855.00,0.3220
3854.00,0.3220
3853.00,0.3220
3852.00,0.3220
3851.00,0.3220
3850.00,0.3219
3849.00,0.3219
3848.00,0.3218
3847.00,0.3218
3846.00,0.3217
3845.00,0.3217
3844.00,0.3216
3843.00,0.3216
3842.00,0.3216
3841.00,0.3215
3840.00,0.3215
3839.00,0.3215
3838.00,0.3215
3837.00,0.3215
3836.00,0.3214
3835.00,0.3212
3834.00,0.3210
3833.00,0.3208
3832.00,0.3206
3831.00,0.3204
3830.00,0.3202
3829.00,0.3201
3828.00,0.3199
3827.00,0.3198
3826.00,0.3198
3825.00,0.3197
3824.00,0.3196
3823.00,0.3195
3822.00,0.3194
3821.00,0.3193
3820.00,0.3192
3819.00,0.3191
3818.00,0.3191
3817.00,0.3191
3816.00,0.3191
3815.00,0.3190
3814.00,0.3187
3813.00,0.3185
3812.00,0.3183
3811.00,0.3183
3810.00,0.3182
3809.00,0.3181
3808.00,0.3180
3807.00,0.3178
3806.00,0.3177
3805.00,0.3176
3804.00,0.3175
3803.00,0.3174
3802.00,0.3173
3801.00,0.3172
3800.00,0.3171
3799.00,0.3169
3798.00,0.3166
3797.00,0.3163
3796.00,0.3160
3795.00,0.3158
3794.00,0.3155
3793.00,0.3152
3792.00,0.3149
3791.00,0.3146
3790.00,0.3144
3789.00,0.3142
3788.00,0.3140
3787.00,0.3139
3786.00,0.3139
3785.00,0.3138
3784.00,0.3138
3783.00,0.3138
3782.00,0.3138
3781.00,0.3138
3780.00,0.3137
3779.00,0.3136
3778.00,0.3135
3777.00,0.3135
3776.00,0.3135
3775.00,0.3135
3774.00,0.3136
3773.00,0.3137
3772.00,0.3137
3771.00,0.3136
3770.00,0.3136
3769.00,0.3135
3768.00,0.3135
3767.00,0.3134
3766.00,0.3134
3765.00,0.3133
3764.00,0.3132
3763.00,0.3130
3762.00,0.3128
3761.00,0.3126
3760.00,0.3124
3759.00,0.3123
3758.00,0.3122
3757.00,0.3121
3756.00,0.3121
3755.00,0.3121
3754.00,0.3121
3753.00,0.3121
3752.00,0.3121
3751.00,0.3121
3750.00,0.3121
3749.00,0.3122
3748.00,0.3122
3747.00,0.3122
3746.00,0.3122
3745.00,0.3123
3744.00,0.3125
3743.00,0.3126
3742.00,0.3126
3741.00,0.3126
3740.00,0.3127
3739.00,0.3128
3738.00,0.3128
3737.00,0.3128
3736.00,0.3127
3735.00,0.3126
3734.00,0.3125
3733.00,0.3124
3732.00,0.3124
3731.00,0.3124
3730.00,0.3123
3729.00,0.3121
3728.00,0.3119
3727.00,0.3117
3726.00,0.3115
3725.00,0.3114
3724.00,0.3114
3723.00,0.3113
3722.00,0.3112
3721.00,0.3111
3720.00,0.3110
3719.00,0.3110
3718.00,0.3112
3717.00,0.3113
3716.00,0.3115
3715.00,0.3117
3714.00,0.3120
3713.00,0.3123
3712.00,0.3127
3711.00,0.3130
3710.00,0.3134
3709.00,0.3137
3708.00,0.3140
3707.00,0.3143
3706.00,0.3146
3705.00,0.3150
3704.00,0.3154
3703.00,0.3157
3702.00,0.3161
3701.00,0.3165
3700.00,0.3170
3699.00,0.3175
3698.00,0.3180
3697.00,0.3185
3696.00,0.3191
3695.00,0.3196
3694.00,0.3202
3693.00,0.3208
3692.00,0.3215
3691.00,0.3223
3690.00,0.3231
3689.00,0.3241
3688.00,0.3251
3687.00,0.3261
3686.00,0.3269
3685.00,0.3278
3684.00,0.3286
3683.00,0.3294
3682.00,0.3302
3681.00,0.3310
3680.00,0.3319
3679.00,0.3327
3678.00,0.3335
3677.00,0.3343
3676.00,0.3353
3675.00,0.3362
3674.00,0.3372
3673.00,0.3380
3672.00,0.3389
3671.00,0.3398
3670.00,0.3408
3669.00,0.3417
3668.00,0.3425
3667.00,0.3433
3666.00,0.3441
3665.00,0.3450
3664.00,0.3458
3663.00,0.3467
3662.00,0.3476
3661.00,0.3485
3660.00,0.3494
3659.00,0.3503
3658.00,0.3514
3657.00,0.3525
3656.00,0.3538
3655.00,0.3550
3654.00,0.3562
3653.00,0.3576
3652.00,0.3593
3651.00,0.3617
3650.00,0.3647
3649.00,0.3682
3648.00,0.3716
3647.00,0.3743
3646.00,0.3759
3645.00,0.3763
3644.00,0.3759
3643.00,0.3751
3642.00,0.3745
3641.00,0.3741
3640.00,0.3742
3639.00,0.3746
3638.00,0.3754
3637.00,0.3764
3636.00,0.3776
3635.00,0.3790
3634.00,0.3805
3633.00,0.3820
3632.00,0.3836
3631.00,0.3855
3630.00,0.3878
3629.00,0.3905
3628.00,0.3934
3627.00,0.3962
3626.00,0.3990
3625.00,0.4017
3624.00,0.4043
3623.00,0.4069
3622.00,0.4093
3621.00,0.4116
3620.00,0.4139
3619.00,0.4161
3618.00,0.4183
3617.00,0.4204
3616.00,0.4226
3615.00,0.4248
3614.00,0.4271
3613.00,0.4294
3612.00,0.4316
3611.00,0.4338
3610.00,0.4360
3609.00,0.4381
3608.00,0.4400
3607.00,0.4418
3606.00,0.4433
3605.00,0.4446
3604.00,0.4457
3603.00,0.4466
3602.00,0.4472
3601.00,0.4475
3600.00,0.4477
3599.00,0.4478
3598.00,0.4478
3597.00,0.4477
3596.00,0.4475
3595.00,0.4473
3594.00,0.4471
3593.00,0.4470
3592.00,0.4470
3591.00,0.4472
3590.00,0.4474
3589.00,0.4476
3588.00,0.4478
3587.00,0.4479
3586.00,0.4482
3585.00,0.4485
3584.00,0.4489
3583.00,0.4493
3582.00,0.4496
3581.00,0.4499
3580.00,0.4503
3579.00,0.4508
3578.00,0.4513
3577.00,0.4518
3576.00,0.4524
3575.00,0.4529
3574.00,0.4534
3573.00,0.4540
3572.00,0.4546
3571.00,0.4553
3570.00,0.4559
3569.00,0.4566
3568.00,0.4572
3567.00,0.4578
3566.00,0.4585
3565.00,0.4592
3564.00,0.4599
3563.00,0.4605
3562.00,0.4611
3561.00,0.4617
3560.00,0.4622
3559.00,0.4628
3558.00,0.4634
3557.00,0.4640
3556.00,0.4647
3555.00,0.4653
3554.00,0.4659
3553.00,0.4666
3552.00,0.4672
3551.00,0.4678
3550.00,0.4685
3549.00,0.4692
3548.00,0.4699
3547.00,0.4706
3546.00,0.4713
3545.00,0.4720
3544.00,0.4728
3543.00,0.4737
3542.00,0.4746
3541.00,0.4755
3540.00,0.4763
3539.00,0.4772
3538.00,0.4781
3537.00,0.4791
3536.00,0.4801
3535.00,0.4810
3534.00,0.4820
3533.00,0.4830
3532.00,0.4841
3531.00,0.4853
3530.00,0.4864
3529.00,0.4875
3528.00,0.4886
3527.00,0.4898
3526.00,0.4911
3525.00,0.4923
3524.00,0.4936
3523.00,0.4947
3522.00,0.4959
3521.00,0.4969
3520.00,0.4980
3519.00,0.4992
3518.00,0.5003
3517.00,0.5016
3516.00,0.5028
3515.00,0.5041
3514.00,0.5053
3513.00,0.5065
3512.00,0.5078
3511.00,0.5090
3510.00,0.5103
3509.00,0.5115
3508.00,0.5126
3507.00,0.5138
3506.00,0.5150
3505.00,0.5162
3504.00,0.5175
3503.00,0.5187
3502.00,0.5199
3501.00,0.5211
3500.00,0.5224
3499.00,0.5236
3498.00,0.5247
3497.00,0.5258
3496.00,0.5269
3495.00,0.5279
3494.00,0.5290
3493.00,0.5301
3492.00,0.5313
3491.00,0.5324
3490.00,0.5334
3489.00,0.5345
3488.00,0.5355
3487.00,0.5366
3486.00,0.5375
3485.00,0.5384
3484.00,0.5393
3483.00,0.5402
3482.00,0.5411
3481.00,0.5419
3480.00,0.5427
3479.00,0.5435
3478.00,0.5443
3477.00,0.5452
3476.00,0.5460
3475.00,0.5468
3474.00,0.5475
3473.00,0.5483
3472.00,0.5492
3471.00,0.5501
3470.00,0.5509
3469.00,0.5518
3468.00,0.5527
3467.00,0.5535
3466.00,0.5544
3465.00,0.5553
3464.00,0.5561
3463.00,0.5569
3462.00,0.5577
3461.00,0.5584
3460.00,0.5593
3459.00,0.5601
3458.00,0.5611
3457.00,0.5620
3456.00,0.5630
3455.00,0.5640
3454.00,0.5650
3453.00,0.5661
3452.00,0.5673
3451.00,0.5684
3450.00,0.5697
3449.00,0.5710
3448.00,0.5723
3447.00,0.5737
3446.00,0.5752
3445.00,0.5769
3444.00,0.5786
3443.00,0.5805
3442.00,0.5824
3441.00,0.5842
3440.00,0.5860
3439.00,0.5877
3438.00,0.5894
3437.00,0.5910
3436.00,0.5926
3435.00,0.5941
3434.00,0.5956
3433.00,0.5970
3432.00,0.5985
3431.00,0.6001
3430.00,0.6017
3429.00,0.6035
3428.00,0.6052
3427.00,0.6070
3426.00,0.6087
3425.00,0.6106
3424.00,0.6125
3423.00,0.6145
3422.00,0.6166
3421.00,0.6186
3420.00,0.6207
3419.00,0.6228
3418.00,0.6249
3417.00,0.6271
3416.00,0.6294
3415.00,0.6317
3414.00,0.6340
3413.00,0.6362
3412.00,0.6383
3411.00,0.6404
3410.00,0.6426
3409.00,0.6448
3408.00,0.6470
3407.00,0.6491
3406.00,0.6510
3405.00,0.6528
3404.00,0.6545
3403.00,0.6562
3402.00,0.6580
3401.00,0.6596
3400.00,0.6611
3399.00,0.6626
3398.00,0.6640
3397.00,0.6656
3396.00,0.6671
3395.00,0.6687
3394.00,0.6702
3393.00,0.6718
3392.00,0.6735
3391.00,0.6751
3390.00,0.6767
3389.00,0.6783
3388.00,0.6802
3387.00,0.6822
3386.00,0.6844
3385.00,0.6867
3384.00,0.6892
3383.00,0.6918
3382.00,0.6947
3381.00,0.6977
3380.00,0.7009
3379.00,0.7043
3378.00,0.7078
3377.00,0.7116
3376.00,0.7156
3375.00,0.7200
3374.00,0.7246
3373.00,0.7295
3372.00,0.7347
3371.00,0.7403
3370.00,0.7460
3369.00,0.7519
3368.00,0.7580
3367.00,0.7642
3366.00,0.7706
3365.00,0.7772
3364.00,0.7839
3363.00,0.7906
3362.00,0.7974
3361.00,0.8040
3360.00,0.8105
3359.00,0.8168
3358.00,0.8229
3357.00,0.8287
3356.00,0.8338
3355.00,0.8381
3354.00,0.8416
3353.00,0.8442
3352.00,0.8459
3351.00,0.8467
3350.00,0.8467
3349.00,0.8459
3348.00,0.8445
3347.00,0.8426
3346.00,0.8402
3345.00,0.8374
3344.00,0.8340
3343.00,0.8302
3342.00,0.8261
3341.00,0.8217
3340.00,0.8171
3339.00,0.8125
3338.00,0.8078
3337.00,0.8031
3336.00,0.7985
3335.00,0.7939
3334.00,0.7894
3333.00,0.7850
3332.00,0.7807
3331.00,0.7766
3330.00,0.7725
3329.00,0.7685
3328.00,0.7645
3327.00,0.7606
3326.00,0.7568
3325.00,0.7532
3324.00,0.7497
3323.00,0.7463
3322.00,0.7429
3321.00,0.7397
3320.00,0.7366
3319.00,0.7335
3318.00,0.7305
3317.00,0.7277
3316.00,0.7250
3315.00,0.7223
3314.00,0.7197
3313.00,0.7172
3312.00,0.7147
3311.00,0.7122
3310.00,0.7099
3309.00,0.7077
3308.00,0.7056
3307.00,0.7035
3306.00,0.7014
3305.00,0.6992
3304.00,0.6970
3303.00,0.6948
3302.00,0.6927
3301.00,0.6908
3300.00,0.6889
3299.00,0.6869
3298.00,0.6849
3297.00,0.6829
3296.00,0.6810
3295.00,0.6793
3294.00,0.6776
3293.00,0.6761
3292.00,0.6746
3291.00,0.6730
3290.00,0.6713
3289.00,0.6696
3288.00,0.6680
3287.00,0.6664
3286.00,0.6649
3285.00,0.6635
3284.00,0.6621
3283.00,0.6608
3282.00,0.6594
3281.00,0.6581
3280.00,0.6568
3279.00,0.6556
3278.00,0.6544
3277.00,0.6533
3276.00,0.6522
3275.00,0.6512
3274.00,0.6502
3273.00,0.6492
3272.00,0.6481
3271.00,0.6470
3270.00,0.6458
3269.00,0.6447
3268.00,0.6437
3267.00,0.6427
3266.00,0.6417
3265.00,0.6408
3264.00,0.6399
3263.00,0.6391
3262.00,0.6383
3261.00,0.6375
3260.00,0.6366
3259.00,0.6358
3258.00,0.6349
3257.00,0.6341
3256.00,0.6333
3255.00,0.6325
3254.00,0.6316
3253.00,0.6307
3252.00,0.6298
3251.00,0.6289
3250.00,0.6280
3249.00,0.6272
3248.00,0.6264
3247.00,0.6256
3246.00,0.6248
3245.00,0.6239
3244.00,0.6229
3243.00,0.6220
3242.00,0.6211
3241.00,0.6202
3240.00,0.6193
3239.00,0.6184
3238.00,0.6175
3237.00,0.6166
3236.00,0.6156
3235.00,0.6146
3234.00,0.6136
3233.00,0.6127
3232.00,0.6119
3231.00,0.6111
3230.00,0.6103
3229.00,0.6094
3228.00,0.6084
3227.00,0.6074
3226.00,0.6064
3225.00,0.6055
3224.00,0.6047
3223.00,0.6039
3222.00,0.6031
3221.00,0.6022
3220.00,0.6013
3219.00,0.6005
3218.00,0.5996
3217.00,0.5988
3216.00,0.5981
3215.00,0.5973
3214.00,0.5966
3213.00,0.5959
3212.00,0.5951
3211.00,0.5943
3210.00,0.5935
3209.00,0.5926
3208.00,0.5918
3207.00,0.5909
3206.00,0.5901
3205.00,0.5893
3204.00,0.5886
3203.00,0.5878
3202.00,0.5871
3201.00,0.5863
3200.00,0.5855
3199.00,0.5846
3198.00,0.5837
3197.00,0.5829
3196.00,0.5821
3195.00,0.5813
3194.00,0.5804
3193.00,0.5794
3192.00,0.5784
3191.00,0.5773
3190.00,0.5762
3189.00,0.5751
3188.00,0.5740
3187.00,0.5729
3186.00,0.5717
3185.00,0.5706
3184.00,0.5693
3183.00,0.5681
3182.00,0.5669
3181.00,0.5657
3180.00,0.5645
3179.00,0.5632
3178.00,0.5619
3177.00,0.5606
3176.00,0.5593
3175.00,0.5580
3174.00,0.5566
3173.00,0.5551
3172.00,0.5537
3171.00,0.5522
3170.00,0.5507
3169.00,0.5492
3168.00,0.5478
3167.00,0.5464
3166.00,0.5450
3165.00,0.5436
3164.00,0.5421
3163.00,0.5406
3162.00,0.5391
3161.00,0.5377
3160.00,0.5363
3159.00,0.5349
3158.00,0.5335
3157.00,0.5321
3156.00,0.5306
3155.00,0.5291
3154.00,0.5277
3153.00,0.5262
3152.00,0.5248
3151.00,0.5235
3150.00,0.5222
3149.00,0.5209
3148.00,0.5196
3147.00,0.5183
3146.00,0.5170
3145.00,0.5158
3144.00,0.5145
3143.00,0.5133
3142.00,0.5121
3141.00,0.5109
3140.00,0.5097
3139.00,0.5086
3138.00,0.5076
3137.00,0.5066
3136.00,0.5056
3135.00,0.5046
3134.00,0.5036
3133.00,0.5026
3132.00,0.5017
3131.00,0.5008
3130.00,0.5000
3129.00,0.4991
3128.00,0.4984
3127.00,0.4976
3126.00,0.4969
3125.00,0.4963
3124.00,0.4957
3123.00,0.4952
3122.00,0.4946
3121.00,0.4940
3120.00,0.4935
3119.00,0.4931
3118.00,0.4928
3117.00,0.4926
3116.00,0.4924
3115.00,0.4922
3114.00,0.4920
3113.00,0.4919
3112.00,0.4919
3111.00,0.4920
3110.00,0.4923
3109.00,0.4927
3108.00,0.4932
3107.00,0.4936
3106.00,0.4941
3105.00,0.4947
3104.00,0.4953
3103.00,0.4959
3102.00,0.4964
3101.00,0.4970
3100.00,0.4976
3099.00,0.4982
3098.00,0.4988
3097.00,0.4994
3096.00,0.5000
3095.00,0.5006
3094.00,0.5012
3093.00,0.5020
3092.00,0.5029
3091.00,0.5040
3090.00,0.5053
3089.00,0.5068
3088.00,0.5084
3087.00,0.5101
3086.00,0.5118
3085.00,0.5136
3084.00,0.5155
3083.00,0.5174
3082.00,0.5193
3081.00,0.5213
3080.00,0.5235
3079.00,0.5257
3078.00,0.5281
3077.00,0.5306
3076.00,0.5334
3075.00,0.5364
3074.00,0.5397
3073.00,0.5430
3072.00,0.5465
3071.00,0.5502
3070.00,0.5539
3069.00,0.5578
3068.00,0.5617
3067.00,0.5655
3066.00,0.5694
3065.00,0.5733
3064.00,0.5771
3063.00,0.5808
3062.00,0.5841
3061.00,0.5871
3060.00,0.5898
3059.00,0.5921
3058.00,0.5942
3057.00,0.5962
3056.00,0.5980
3055.00,0.5999
3054.00,0.6019
3053.00,0.6040
3052.00,0.6062
3051.00,0.6087
3050.00,0.6114
3049.00,0.6143
3048.00,0.6175
3047.00,0.6208
3046.00,0.6243
3045.00,0.6277
3044.00,0.6310
3043.00,0.6342
3042.00,0.6374
3041.00,0.6407
3040.00,0.6443
3039.00,0.6481
3038.00,0.6522
3037.00,0.6567
3036.00,0.6616
3035.00,0.6670
3034.00,0.6730
3033.00,0.6796
3032.00,0.6865
3031.00,0.6937
3030.00,0.7011
3029.00,0.7084
3028.00,0.7156
3027.00,0.7226
3026.00,0.7291
3025.00,0.7352
3024.00,0.7409
3023.00,0.7464
3022.00,0.7519
3021.00,0.7576
3020.00,0.7637
3019.00,0.7701
3018.00,0.7769
3017.00,0.7842
3016.00,0.7920
3015.00,0.8005
3014.00,0.8096
3013.00,0.8194
3012.00,0.8298
3011.00,0.8409
3010.00,0.8527
3009.00,0.8655
3008.00,0.8791
3007.00,0.8936
3006.00,0.9091
3005.00,0.9254
3004.00,0.9424
3003.00,0.9604
3002.00,0.9795
3001.00,0.9997
3000.00,1.0210
2999.00,1.0437
2998.00,1.0680
2997.00,1.0941
2996.00,1.1223
2995.00,1.1529
2994.00,1.1862
2993.00,1.2222
2992.00,1.2611
2991.00,1.3034
2990.00,1.3495
2989.00,1.3999
2988.00,1.4552
2987.00,1.5164
2986.00,1.5846
2985.00,1.6603
2984.00,1.7435
2983.00,1.8346
2982.00,1.9346
2981.00,2.0450
2980.00,2.1665
2979.00,2.3000
2978.00,2.4470
2977.00,2.6065
2976.00,2.7743
2975.00,2.9427
2974.00,3.1073
2973.00,3.2630
2972.00,3.4171
2971.00,3.5825
2970.00,3.8427
2969.00,4.3376
2968.00,4.5166
2967.00,4.2229
2966.00,3.9689
2965.00,3.8936
2964.00,3.8462
2963.00,3.8903
2962.00,4.1879
2961.00,4.4040
2960.00,4.3127
2959.00,4.1781
2958.00,4.1845
2957.00,4.1265
2956.00,3.9058
2955.00,3.7850
2954.00,3.7555
2953.00,3.8966
2952.00,4.2418
2951.00,4.3670
2950.00,4.1862
2949.00,4.0084
2948.00,3.9940
2947.00,4.0659
2946.00,4.2273
2945.00,4.5058
2944.00,4.3926
2943.00,4.3377
2942.00,4.4741
2941.00,4.2756
2940.00,4.0697
2939.00,4.0204
2938.00,4.0374
2937.00,3.8861
2936.00,3.7273
2935.00,3.6842
2934.00,3.7945
2933.00,4.0144
2932.00,3.9408
2931.00,3.7755
2930.00,3.7032
2929.00,3.8778
2928.00,4.3243
2927.00,4.3344
2926.00,4.0485
2925.00,3.8307
2924.00,3.7864
2923.00,3.8041
2922.00,3.8306
2921.00,3.9721
2920.00,4.0738
2919.00,4.0239
2918.00,3.9520
2917.00,4.0460
2916.00,4.3597
2915.00,4.2043
2914.00,3.9342
2913.00,3.8079
2912.00,3.8429
2911.00,3.9171
2910.00,3.9167
2909.00,3.9266
2908.00,3.9736
2907.00,4.0155
2906.00,3.9964
2905.00,3.9211
2904.00,3.9547
2903.00,4.2570
2902.00,4.4843
2901.00,4.2955
2900.00,4.0606
2899.00,3.9543
2898.00,3.8575
2897.00,3.7980
2896.00,3.8791
2895.00,4.0404
2894.00,4.2616
2893.00,4.2549
2892.00,4.0072
2891.00,3.8771
2890.00,3.9697
2889.00,4.3965
2888.00,5.0056
2887.00,4.7241
2886.00,4.4210
2885.00,4.2871
2884.00,4.2286
2883.00,4.2951
2882.00,4.4711
2881.00,4.3404
2880.00,4.1431
2879.00,4.0677
2878.00,4.1628
2877.00,4.3237
2876.00,4.2704
2875.00,4.1168
2874.00,4.0043
2873.00,4.0271
2872.00,4.1184
2871.00,4.1070
2870.00,4.0011
2869.00,3.9463
2868.00,4.0031
2867.00,4.0147
2866.00,4.0394
2865.00,4.2495
2864.00,4.3391
2863.00,4.1164
2862.00,3.9692
2861.00,4.0210
2860.00,4.0372
2859.00,3.9736
2858.00,3.9606
2857.00,3.9503
2856.00,3.9614
2855.00,4.0649
2854.00,4.2389
2853.00,4.2636
2852.00,4.1322
2851.00,4.1247
2850.00,4.2919
2849.00,4.5825
2848.00,4.7214
2847.00,4.3779
2846.00,4.2012
2845.00,4.1717
2844.00,4.2351
2843.00,4.2728
2842.00,4.1569
2841.00,3.7987
2840.00,3.4212
2839.00,3.1243
2838.00,2.8918
2837.00,2.6902
2836.00,2.5074
2835.00,2.3439
2834.00,2.1981
2833.00,2.0690
2832.00,1.9549
2831.00,1.8541
2830.00,1.7646
2829.00,1.6845
2828.00,1.6128
2827.00,1.5488
2826.00,1.4914
2825.00,1.4389
2824.00,1.3903
2823.00,1.3451
2822.00,1.3030
2821.00,1.2639
2820.00,1.2277
2819.00,1.1940
2818.00,1.1625
2817.00,1.1328
2816.00,1.1047
2815.00,1.0784
2814.00,1.0537
2813.00,1.0305
2812.00,1.0084
2811.00,0.9872
2810.00,0.9667
2809.00,0.9470
2808.00,0.9281
2807.00,0.9101
2806.00,0.8930
2805.00,0.8767
2804.00,0.8611
2803.00,0.8459
2802.00,0.8312
2801.00,0.8168
2800.00,0.8029
2799.00,0.7895
2798.00,0.7768
2797.00,0.7647
2796.00,0.7532
2795.00,0.7421
2794.00,0.7314
2793.00,0.7211
2792.00,0.7112
2791.00,0.7015
2790.00,0.6921
2789.00,0.6828
2788.00,0.6738
2787.00,0.6650
2786.00,0.6565
2785.00,0.6481
2784.00,0.6397
2783.00,0.6315
2782.00,0.6234
2781.00,0.6156
2780.00,0.6082
2779.00,0.6010
2778.00,0.5942
2777.00,0.5876
2776.00,0.5814
2775.00,0.5756
2774.00,0.5701
2773.00,0.5651
2772.00,0.5605
2771.00,0.5562
2770.00,0.5524
2769.00,0.5490
2768.00,0.5459
2767.00,0.5433
2766.00,0.5410
2765.00,0.5390
2764.00,0.5372
2763.00,0.5355
2762.00,0.5341
2761.00,0.5329
2760.00,0.5319
2759.00,0.5309
2758.00,0.5299
2757.00,0.5290
2756.00,0.5281
2755.00,0.5273
2754.00,0.5267
2753.00,0.5264
2752.00,0.5262
2751.00,0.5262
2750.00,0.5263
2749.00,0.5266
2748.00,0.5270
2747.00,0.5276
2746.00,0.5283
2745.00,0.5294
2744.00,0.5307
2743.00,0.5323
2742.00,0.5342
2741.00,0.5364
2740.00,0.5390
2739.00,0.5419
2738.00,0.5451
2737.00,0.5486
2736.00,0.5526
2735.00,0.5568
2734.00,0.5612
2733.00,0.5654
2732.00,0.5689
2731.00,0.5712
2730.00,0.5722
2729.00,0.5718
2728.00,0.5700
2727.00,0.5671
2726.00,0.5635
2725.00,0.5595
2724.00,0.5555
2723.00,0.5517
2722.00,0.5480
2721.00,0.5446
2720.00,0.5414
2719.00,0.5384
2718.00,0.5355
2717.00,0.5326
2716.00,0.5298
2715.00,0.5268
2714.00,0.5237
2713.00,0.5205
2712.00,0.5173
2711.00,0.5143
2710.00,0.5115
2709.00,0.5091
2708.00,0.5071
2707.00,0.5054
2706.00,0.5040
2705.00,0.5029
2704.00,0.5021
2703.00,0.5016
2702.00,0.5014
2701.00,0.5014
2700.00,0.5018
2699.00,0.5025
2698.00,0.5034
2697.00,0.5045
2696.00,0.5059
2695.00,0.5074
2694.00,0.5091
2693.00,0.5109
2692.00,0.5129
2691.00,0.5150
2690.00,0.5170
2689.00,0.5188
2688.00,0.5206
2687.00,0.5221
2686.00,0.5233
2685.00,0.5243
2684.00,0.5250
2683.00,0.5256
2682.00,0.5260
2681.00,0.5264
2680.00,0.5266
2679.00,0.5267
2678.00,0.5267
2677.00,0.5267
2676.00,0.5267
2675.00,0.5266
2674.00,0.5264
2673.00,0.5261
2672.00,0.5255
2671.00,0.5247
2670.00,0.5236
