Created as New Dataset,
cm-1,A
4000.00,0.3832
3999.00,0.3830
3998.00,0.3827
3997.00,0.3823
3996.00,0.3819
3995.00,0.3816
3994.00,0.3813
3993.00,0.3809
3992.00,0.3806
3991.00,0.3802
3990.00,0.3798
3989.00,0.3794
3988.00,0.3790
3987.00,0.3785
3986.00,0.3781
3985.00,0.3777
3984.00,0.3773
3983.00,0.3768
3982.00,0.3764
3981.00,0.3760
3980.00,0.3756
3979.00,0.3752
3978.00,0.3748
3977.00,0.3744
3976.00,0.3741
3975.00,0.3738
3974.00,0.3735
3973.00,0.3731
3972.00,0.3729
3971.00,0.3726
3970.00,0.3723
3969.00,0.3721
3968.00,0.3718
3967.00,0.3716
3966.00,0.3713
3965.00,0.3711
3964.00,0.3710
3963.00,0.3708
3962.00,0.3706
3961.00,0.3704
3960.00,0.3703
3959.00,0.3701
3958.00,0.3699
3957.00,0.3698
3956.00,0.3696
3955.00,0.3694
3954.00,0.3693
3953.00,0.3691
3952.00,0.3690
3951.00,0.3688
3950.00,0.3687
3949.00,0.3685
3948.00,0.3685
3947.00,0.3685
3946.00,0.3684
3945.00,0.3683
3944.00,0.3682
3943.00,0.3681
3942.00,0.3681
3941.00,0.3681
3940.00,0.3680
3939.00,0.3679
3938.00,0.3679
3937.00,0.3679
3936.00,0.3678
3935.00,0.3677
3934.00,0.3677
3933.00,0.3677
3932.00,0.3677
3931.00,0.3677
3930.00,0.3676
3929.00,0.3676
3928.00,0.3675
3927.00,0.3674
3926.00,0.3673
3925.00,0.3673
3924.00,0.3672
3923.00,0.3671
3922.00,0.3669
3921.00,0.3668
3920.00,0.3669
3919.00,0.3670
3918.00,0.3670
3917.00,0.3671
3916.00,0.3671
3915.00,0.3671
3914.00,0.3670
3913.00,0.3669
3912.00,0.3668
3911.00,0.3667
3910.00,0.3666
3909.00,0.3664
3908.00,0.3662
3907.00,0.3659
3906.00,0.3657
3905.00,0.3655
3904.00,0.3655
3903.00,0.3656
3902.00,0.3655
3901.00,0.3655
3900.00,0.3656
3899.00,0.3658
3898.00,0.3660
3897.00,0.3660
3896.00,0.3660
3895.00,0.3660
3894.00,0.3658
3893.00,0.3655
3892.00,0.3652
3891.00,0.3652
3890.00,0.3652
3889.00,0.3651
3888.00,0.3646
3887.00,0.3643
3886.00,0.3644
3885.00,0.3647
3884.00,0.3648
3883.00,0.3645
3882.00,0.3641
3881.00,0.3640
3880.00,0.3642
3879.00,0.3644
3878.00,0.3643
3877.00,0.3639
3876.00,0.3634
3875.00,0.3634
3874.00,0.3637
3873.00,0.3637
3872.00,0.3631
3871.00,0.3624
3870.00,0.3623
3869.00,0.3624
3868.00,0.3625
3867.00,0.3622
3866.00,0.3621
3865.00,0.3622
3864.00,0.3624
3863.00,0.3623
3862.00,0.3620
3861.00,0.3616
3860.00,0.3613
3859.00,0.3612
3858.00,0.3612
3857.00,0.3610
3856.00,0.3605
3855.00,0.3601
3854.00,0.3603
3853.00,0.3607
3852.00,0.3610
3851.00,0.3610
3850.00,0.3611
3849.00,0.3613
3848.00,0.3616
3847.00,0.3616
3846.00,0.3615
3845.00,0.3612
3844.00,0.3609
3843.00,0.3607
3842.00,0.3606
3841.00,0.3603
3840.00,0.3600
3839.00,0.3598
3838.00,0.3597
3837.00,0.3598
3836.00,0.3598
3835.00,0.3598
3834.00,0.3598
3833.00,0.3598
3832.00,0.3601
3831.00,0.3604
3830.00,0.3605
3829.00,0.3602
3828.00,0.3597
3827.00,0.3594
3826.00,0.3594
3825.00,0.3594
3824.00,0.3592
3823.00,0.3587
3822.00,0.3585
3821.00,0.3588
3820.00,0.3592
3819.00,0.3591
3818.00,0.3586
3817.00,0.3583
3816.00,0.3585
3815.00,0.3586
3814.00,0.3584
3813.00,0.3580
3812.00,0.3577
3811.00,0.3577
3810.00,0.3575
3809.00,0.3570
3808.00,0.3564
3807.00,0.3562
3806.00,0.3562
3805.00,0.3560
3804.00,0.3555
3803.00,0.3548
3802.00,0.3547
3801.00,0.3549
3800.00,0.3549
3799.00,0.3546
3798.00,0.3542
3797.00,0.3542
3796.00,0.3544
3795.00,0.3545
3794.00,0.3544
3793.00,0.3541
3792.00,0.3539
3791.00,0.3538
3790.00,0.3537
3789.00,0.3536
3788.00,0.3535
3787.00,0.3533
3786.00,0.3530
3785.00,0.3528
3784.00,0.3528
3783.00,0.3527
3782.00,0.3526
3781.00,0.3524
3780.00,0.3524
3779.00,0.3524
3778.00,0.3522
3777.00,0.3518
3776.00,0.3514
3775.00,0.3512
3774.00,0.3511
3773.00,0.3509
3772.00,0.3506
3771.00,0.3502
3770.00,0.3500
3769.00,0.3498
3768.00,0.3496
3767.00,0.3492
3766.00,0.3489
3765.00,0.3489
3764.00,0.3488
3763.00,0.3486
3762.00,0.3483
3761.00,0.3480
3760.00,0.3478
3759.00,0.3475
3758.00,0.3471
3757.00,0.3467
3756.00,0.3464
3755.00,0.3461
3754.00,0.3458
3753.00,0.3456
3752.00,0.3453
3751.00,0.3448
3750.00,0.3445
3749.00,0.3445
3748.00,0.3447
3747.00,0.3446
3746.00,0.3445
3745.00,0.3448
3744.00,0.3455
3743.00,0.3457
3742.00,0.3455
3741.00,0.3452
3740.00,0.3453
3739.00,0.3455
3738.00,0.3454
3737.00,0.3453
3736.00,0.3452
3735.00,0.3452
3734.00,0.3450
3733.00,0.3448
3732.00,0.3448
3731.00,0.3450
3730.00,0.3451
3729.00,0.3449
3728.00,0.3446
3727.00,0.3446
3726.00,0.3445
3725.00,0.3444
3724.00,0.3442
3723.00,0.3440
3722.00,0.3440
3721.00,0.3439
3720.00,0.3438
3719.00,0.3435
3718.00,0.3433
3717.00,0.3432
3716.00,0.3432
3715.00,0.3430
3714.00,0.3429
3713.00,0.3429
3712.00,0.3430
3711.00,0.3432
3710.00,0.3434
3709.00,0.3434
3708.00,0.3435
3707.00,0.3436
3706.00,0.3438
3705.00,0.3439
3704.00,0.3441
3703.00,0.3441
3702.00,0.3443
3701.00,0.3444
3700.00,0.3444
3699.00,0.3443
3698.00,0.3441
3697.00,0.3440
3696.00,0.3438
3695.00,0.3436
3694.00,0.3433
3693.00,0.3432
3692.00,0.3431
3691.00,0.3429
3690.00,0.3428
3689.00,0.3428
3688.00,0.3429
3687.00,0.3431
3686.00,0.3431
3685.00,0.3431
3684.00,0.3431
3683.00,0.3431
3682.00,0.3429
3681.00,0.3426
3680.00,0.3426
3679.00,0.3426
3678.00,0.3422
3677.00,0.3417
3676.00,0.3417
3675.00,0.3421
3674.00,0.3425
3673.00,0.3426
3672.00,0.3426
3671.00,0.3431
3670.00,0.3441
3669.00,0.3450
3668.00,0.3456
3667.00,0.3460
3666.00,0.3464
3665.00,0.3469
3664.00,0.3475
3663.00,0.3480
3662.00,0.3484
3661.00,0.3489
3660.00,0.3495
3659.00,0.3500
3658.00,0.3506
3657.00,0.3515
3656.00,0.3527
3655.00,0.3541
3654.00,0.3555
3653.00,0.3571
3652.00,0.3593
3651.00,0.3627
3650.00,0.3673
3649.00,0.3727
3648.00,0.3785
3647.00,0.3843
3646.00,0.3896
3645.00,0.3942
3644.00,0.3978
3643.00,0.4004
3642.00,0.4018
3641.00,0.4018
3640.00,0.4003
3639.00,0.3977
3638.00,0.3945
3637.00,0.3909
3636.00,0.3871
3635.00,0.3835
3634.00,0.3804
3633.00,0.3780
3632.00,0.3758
3631.00,0.3736
3630.00,0.3716
3629.00,0.3700
3628.00,0.3687
3627.00,0.3676
3626.00,0.3667
3625.00,0.3662
3624.00,0.3659
3623.00,0.3657
3622.00,0.3652
3621.00,0.3642
3620.00,0.3631
3619.00,0.3618
3618.00,0.3606
3617.00,0.3595
3616.00,0.3585
3615.00,0.3576
3614.00,0.3570
3613.00,0.3566
3612.00,0.3563
3611.00,0.3560
3610.00,0.3556
3609.00,0.3555
3608.00,0.3554
3607.00,0.3554
3606.00,0.3551
3605.00,0.3549
3604.00,0.3546
3603.00,0.3543
3602.00,0.3538
3601.00,0.3533
3600.00,0.3526
3599.00,0.3519
3598.00,0.3511
3597.00,0.3502
3596.00,0.3493
3595.00,0.3484
3594.00,0.3475
3593.00,0.3466
3592.00,0.3459
3591.00,0.3453
3590.00,0.3446
3589.00,0.3440
3588.00,0.3435
3587.00,0.3431
3586.00,0.3427
3585.00,0.3423
3584.00,0.3421
3583.00,0.3419
3582.00,0.3418
3581.00,0.3417
3580.00,0.3415
3579.00,0.3414
3578.00,0.3412
3577.00,0.3411
3576.00,0.3410
3575.00,0.3409
3574.00,0.3408
3573.00,0.3406
3572.00,0.3405
3571.00,0.3405
3570.00,0.3404
3569.00,0.3404
3568.00,0.3404
3567.00,0.3405
3566.00,0.3407
3565.00,0.3408
3564.00,0.3409
3563.00,0.3412
3562.00,0.3414
3561.00,0.3416
3560.00,0.3417
3559.00,0.3417
3558.00,0.3418
3557.00,0.3419
3556.00,0.3420
3555.00,0.3422
3554.00,0.3423
3553.00,0.3425
3552.00,0.3426
3551.00,0.3428
3550.00,0.3430
3549.00,0.3432
3548.00,0.3434
3547.00,0.3436
3546.00,0.3438
3545.00,0.3441
3544.00,0.3443
3543.00,0.3446
3542.00,0.3449
3541.00,0.3451
3540.00,0.3454
3539.00,0.3457
3538.00,0.3459
3537.00,0.3463
3536.00,0.3466
3535.00,0.3469
3534.00,0.3472
3533.00,0.3475
3532.00,0.3477
3531.00,0.3480
3530.00,0.3483
3529.00,0.3486
3528.00,0.3489
3527.00,0.3493
3526.00,0.3496
3525.00,0.3499
3524.00,0.3503
3523.00,0.3507
3522.00,0.3511
3521.00,0.3514
3520.00,0.3516
3519.00,0.3519
3518.00,0.3523
3517.00,0.3527
3516.00,0.3530
3515.00,0.3533
3514.00,0.3536
3513.00,0.3539
3512.00,0.3542
3511.00,0.3544
3510.00,0.3548
3509.00,0.3551
3508.00,0.3555
3507.00,0.3559
3506.00,0.3563
3505.00,0.3567
3504.00,0.3572
3503.00,0.3576
3502.00,0.3580
3501.00,0.3584
3500.00,0.3588
3499.00,0.3593
3498.00,0.3597
3497.00,0.3601
3496.00,0.3605
3495.00,0.3609
3494.00,0.3613
3493.00,0.3618
3492.00,0.3623
3491.00,0.3628
3490.00,0.3632
3489.00,0.3637
3488.00,0.3641
3487.00,0.3645
3486.00,0.3649
3485.00,0.3654
3484.00,0.3659
3483.00,0.3664
3482.00,0.3668
3481.00,0.3673
3480.00,0.3678
3479.00,0.3683
3478.00,0.3688
3477.00,0.3694
3476.00,0.3699
3475.00,0.3704
3474.00,0.3708
3473.00,0.3713
3472.00,0.3718
3471.00,0.3724
3470.00,0.3730
3469.00,0.3736
3468.00,0.3743
3467.00,0.3749
3466.00,0.3755
3465.00,0.3761
3464.00,0.3767
3463.00,0.3773
3462.00,0.3779
3461.00,0.3785
3460.00,0.3791
3459.00,0.3797
3458.00,0.3804
3457.00,0.3810
3456.00,0.3817
3455.00,0.3823
3454.00,0.3829
3453.00,0.3835
3452.00,0.3842
3451.00,0.3849
3450.00,0.3855
3449.00,0.3862
3448.00,0.3869
3447.00,0.3875
3446.00,0.3882
3445.00,0.3888
3444.00,0.3895
3443.00,0.3902
3442.00,0.3909
3441.00,0.3916
3440.00,0.3924
3439.00,0.3931
3438.00,0.3938
3437.00,0.3945
3436.00,0.3953
3435.00,0.3960
3434.00,0.3969
3433.00,0.3977
3432.00,0.3986
3431.00,0.3995
3430.00,0.4004
3429.00,0.4012
3428.00,0.4020
3427.00,0.4029
3426.00,0.4038
3425.00,0.4047
3424.00,0.4057
3423.00,0.4066
3422.00,0.4076
3421.00,0.4086
3420.00,0.4096
3419.00,0.4106
3418.00,0.4116
3417.00,0.4126
3416.00,0.4136
3415.00,0.4147
3414.00,0.4157
3413.00,0.4167
3412.00,0.4178
3411.00,0.4188
3410.00,0.4199
3409.00,0.4210
3408.00,0.4222
3407.00,0.4234
3406.00,0.4245
3405.00,0.4257
3404.00,0.4269
3403.00,0.4282
3402.00,0.4294
3401.00,0.4306
3400.00,0.4318
3399.00,0.4331
3398.00,0.4344
3397.00,0.4358
3396.00,0.4372
3395.00,0.4385
3394.00,0.4399
3393.00,0.4413
3392.00,0.4427
3391.00,0.4441
3390.00,0.4455
3389.00,0.4468
3388.00,0.4481
3387.00,0.4494
3386.00,0.4508
3385.00,0.4522
3384.00,0.4537
3383.00,0.4551
3382.00,0.4565
3381.00,0.4580
3380.00,0.4594
3379.00,0.4609
3378.00,0.4624
3377.00,0.4639
3376.00,0.4654
3375.00,0.4668
3374.00,0.4683
3373.00,0.4698
3372.00,0.4713
3371.00,0.4728
3370.00,0.4743
3369.00,0.4758
3368.00,0.4774
3367.00,0.4789
3366.00,0.4805
3365.00,0.4821
3364.00,0.4838
3363.00,0.4855
3362.00,0.4873
3361.00,0.4890
3360.00,0.4906
3359.00,0.4921
3358.00,0.4937
3357.00,0.4952
3356.00,0.4969
3355.00,0.4986
3354.00,0.5003
3353.00,0.5021
3352.00,0.5039
3351.00,0.5056
3350.00,0.5073
3349.00,0.5089
3348.00,0.5104
3347.00,0.5119
3346.00,0.5134
3345.00,0.5148
3344.00,0.5163
3343.00,0.5177
3342.00,0.5191
3341.00,0.5205
3340.00,0.5219
3339.00,0.5232
3338.00,0.5244
3337.00,0.5256
3336.00,0.5268
3335.00,0.5279
3334.00,0.5290
3333.00,0.5300
3332.00,0.5309
3331.00,0.5318
3330.00,0.5328
3329.00,0.5337
3328.00,0.5345
3327.00,0.5352
3326.00,0.5358
3325.00,0.5363
3324.00,0.5367
3323.00,0.5372
3322.00,0.5376
3321.00,0.5381
3320.00,0.5385
3319.00,0.5388
3318.00,0.5390
3317.00,0.5392
3316.00,0.5393
3315.00,0.5393
3314.00,0.5393
3313.00,0.5393
3312.00,0.5394
3311.00,0.5394
3310.00,0.5394
3309.00,0.5394
3308.00,0.5393
3307.00,0.5391
3306.00,0.5389
3305.00,0.5387
3304.00,0.5385
3303.00,0.5383
3302.00,0.5381
3301.00,0.5379
3300.00,0.5379
3299.00,0.5378
3298.00,0.5379
3297.00,0.5380
3296.00,0.5380
3295.00,0.5381
3294.00,0.5381
3293.00,0.5381
3292.00,0.5382
3291.00,0.5384
3290.00,0.5386
3289.00,0.5388
3288.00,0.5390
3287.00,0.5393
3286.00,0.5396
3285.00,0.5400
3284.00,0.5406
3283.00,0.5412
3282.00,0.5418
3281.00,0.5425
3280.00,0.5432
3279.00,0.5438
3278.00,0.5444
3277.00,0.5450
3276.00,0.5456
3275.00,0.5464
3274.00,0.5472
3273.00,0.5480
3272.00,0.5487
3271.00,0.5495
3270.00,0.5503
3269.00,0.5512
3268.00,0.5521
3267.00,0.5530
3266.00,0.5539
3265.00,0.5548
3264.00,0.5558
3263.00,0.5567
3262.00,0.5578
3261.00,0.5589
3260.00,0.5600
3259.00,0.5611
3258.00,0.5621
3257.00,0.5631
3256.00,0.5640
3255.00,0.5650
3254.00,0.5661
3253.00,0.5672
3252.00,0.5682
3251.00,0.5692
3250.00,0.5701
3249.00,0.5710
3248.00,0.5719
3247.00,0.5728
3246.00,0.5737
3245.00,0.5746
3244.00,0.5754
3243.00,0.5762
3242.00,0.5769
3241.00,0.5776
3240.00,0.5784
3239.00,0.5790
3238.00,0.5796
3237.00,0.5800
3236.00,0.5805
3235.00,0.5809
3234.00,0.5813
3233.00,0.5818
3232.00,0.5822
3231.00,0.5825
3230.00,0.5827
3229.00,0.5829
3228.00,0.5830
3227.00,0.5830
3226.00,0.5831
3225.00,0.5832
3224.00,0.5833
3223.00,0.5833
3222.00,0.5832
3221.00,0.5831
3220.00,0.5829
3219.00,0.5828
3218.00,0.5828
3217.00,0.5827
3216.00,0.5826
3215.00,0.5823
3214.00,0.5820
3213.00,0.5817
3212.00,0.5814
3211.00,0.5810
3210.00,0.5806
3209.00,0.5801
3208.00,0.5796
3207.00,0.5791
3206.00,0.5786
3205.00,0.5780
3204.00,0.5774
3203.00,0.5767
3202.00,0.5760
3201.00,0.5753
3200.00,0.5745
3199.00,0.5737
3198.00,0.5728
3197.00,0.5719
3196.00,0.5709
3195.00,0.5698
3194.00,0.5687
3193.00,0.5676
3192.00,0.5666
3191.00,0.5655
3190.00,0.5643
3189.00,0.5631
3188.00,0.5619
3187.00,0.5607
3186.00,0.5594
3185.00,0.5581
3184.00,0.5569
3183.00,0.5556
3182.00,0.5544
3181.00,0.5532
3180.00,0.5520
3179.00,0.5507
3178.00,0.5493
3177.00,0.5480
3176.00,0.5466
3175.00,0.5452
3174.00,0.5438
3173.00,0.5424
3172.00,0.5411
3171.00,0.5397
3170.00,0.5383
3169.00,0.5369
3168.00,0.5355
3167.00,0.5341
3166.00,0.5326
3165.00,0.5312
3164.00,0.5297
3163.00,0.5283
3162.00,0.5269
3161.00,0.5255
3160.00,0.5239
3159.00,0.5224
3158.00,0.5208
3157.00,0.5192
3156.00,0.5176
3155.00,0.5160
3154.00,0.5145
3153.00,0.5130
3152.00,0.5115
3151.00,0.5100
3150.00,0.5085
3149.00,0.5071
3148.00,0.5058
3147.00,0.5045
3146.00,0.5031
3145.00,0.5018
3144.00,0.5005
3143.00,0.4993
3142.00,0.4980
3141.00,0.4969
3140.00,0.4958
3139.00,0.4947
3138.00,0.4937
3137.00,0.4927
3136.00,0.4917
3135.00,0.4907
3134.00,0.4897
3133.00,0.4886
3132.00,0.4876
3131.00,0.4865
3130.00,0.4855
3129.00,0.4847
3128.00,0.4839
3127.00,0.4831
3126.00,0.4823
3125.00,0.4816
3124.00,0.4809
3123.00,0.4803
3122.00,0.4798
3121.00,0.4793
3120.00,0.4789
3119.00,0.4785
3118.00,0.4781
3117.00,0.4778
3116.00,0.4776
3115.00,0.4775
3114.00,0.4776
3113.00,0.4777
3112.00,0.4779
3111.00,0.4781
3110.00,0.4784
3109.00,0.4789
3108.00,0.4794
3107.00,0.4799
3106.00,0.4804
3105.00,0.4809
3104.00,0.4812
3103.00,0.4813
3102.00,0.4815
3101.00,0.4816
3100.00,0.4817
3099.00,0.4819
3098.00,0.4821
3097.00,0.4824
3096.00,0.4829
3095.00,0.4835
3094.00,0.4844
3093.00,0.4854
3092.00,0.4867
3091.00,0.4882
3090.00,0.4900
3089.00,0.4921
3088.00,0.4944
3087.00,0.4969
3086.00,0.4996
3085.00,0.5022
3084.00,0.5047
3083.00,0.5068
3082.00,0.5085
3081.00,0.5098
3080.00,0.5109
3079.00,0.5120
3078.00,0.5131
3077.00,0.5145
3076.00,0.5161
3075.00,0.5179
3074.00,0.5199
3073.00,0.5221
3072.00,0.5245
3071.00,0.5272
3070.00,0.5300
3069.00,0.5331
3068.00,0.5364
3067.00,0.5398
3066.00,0.5435
3065.00,0.5473
3064.00,0.5512
3063.00,0.5548
3062.00,0.5582
3061.00,0.5610
3060.00,0.5632
3059.00,0.5650
3058.00,0.5664
3057.00,0.5675
3056.00,0.5687
3055.00,0.5698
3054.00,0.5711
3053.00,0.5726
3052.00,0.5744
3051.00,0.5764
3050.00,0.5787
3049.00,0.5813
3048.00,0.5841
3047.00,0.5870
3046.00,0.5903
3045.00,0.5937
3044.00,0.5974
3043.00,0.6013
3042.00,0.6053
3041.00,0.6095
3040.00,0.6140
3039.00,0.6187
3038.00,0.6239
3037.00,0.6295
3036.00,0.6358
3035.00,0.6426
3034.00,0.6500
3033.00,0.6580
3032.00,0.6666
3031.00,0.6758
3030.00,0.6853
3029.00,0.6948
3028.00,0.7040
3027.00,0.7124
3026.00,0.7198
3025.00,0.7263
3024.00,0.7318
3023.00,0.7367
3022.00,0.7413
3021.00,0.7460
3020.00,0.7511
3019.00,0.7567
3018.00,0.7631
3017.00,0.7703
3016.00,0.7782
3015.00,0.7869
3014.00,0.7964
3013.00,0.8067
3012.00,0.8177
3011.00,0.8295
3010.00,0.8421
3009.00,0.8555
3008.00,0.8699
3007.00,0.8852
3006.00,0.9014
3005.00,0.9186
3004.00,0.9368
3003.00,0.9559
3002.00,0.9758
3001.00,0.9968
3000.00,1.0188
2999.00,1.0421
2998.00,1.0670
2997.00,1.0936
2996.00,1.1224
2995.00,1.1538
2994.00,1.1880
2993.00,1.2255
2992.00,1.2665
2991.00,1.3119
2990.00,1.3622
2989.00,1.4182
2988.00,1.4801
2987.00,1.5486
2986.00,1.6242
2985.00,1.7079
2984.00,1.8005
2983.00,1.9034
2982.00,2.0174
2981.00,2.1430
2980.00,2.2808
2979.00,2.4333
2978.00,2.6046
2977.00,2.7945
2976.00,2.9914
2975.00,3.1716
2974.00,3.3217
2973.00,3.4482
2972.00,3.5490
2971.00,3.6246
2970.00,3.6936
2969.00,3.7755
2968.00,3.8566
2967.00,3.8945
2966.00,3.8612
2965.00,3.7667
2964.00,3.6629
2963.00,3.5961
2962.00,3.5840
2961.00,3.6252
2960.00,3.7439
2959.00,3.9444
2958.00,4.0304
2957.00,3.9868
2956.00,3.9196
2955.00,3.9034
2954.00,3.8712
2953.00,3.8714
2952.00,4.0977
2951.00,4.3310
2950.00,4.0776
2949.00,3.9008
2948.00,3.8908
2947.00,4.0124
2946.00,4.0622
2945.00,4.1964
2944.00,4.3770
2943.00,4.2191
2942.00,4.0759
2941.00,4.0976
2940.00,4.3542
2939.00,4.6294
2938.00,4.5167
2937.00,4.2481
2936.00,4.0691
2935.00,4.0402
2934.00,4.1111
2933.00,4.3199
2932.00,4.3904
2931.00,4.0746
2930.00,3.8537
2929.00,3.7930
2928.00,3.8654
2927.00,3.9477
2926.00,4.0054
2925.00,4.0579
2924.00,4.0432
2923.00,3.9383
2922.00,3.8379
2921.00,3.8085
2920.00,3.8415
2919.00,3.9058
2918.00,3.9842
2917.00,4.0837
2916.00,4.1983
2915.00,4.3339
2914.00,4.4493
2913.00,4.3834
2912.00,4.1657
2911.00,3.9570
2910.00,3.8457
2909.00,3.8460
2908.00,3.9558
2907.00,4.1901
2906.00,4.5610
2905.00,4.6137
2904.00,4.3632
2903.00,4.1641
2902.00,4.0790
2901.00,3.9961
2900.00,3.9257
2899.00,3.9593
2898.00,4.0735
2897.00,4.1176
2896.00,4.0442
2895.00,3.9481
2894.00,3.9234
2893.00,3.9576
2892.00,4.0143
2891.00,4.0419
2890.00,4.1069
2889.00,4.3297
2888.00,4.3892
2887.00,4.2653
2886.00,4.2132
2885.00,4.3688
2884.00,4.3892
2883.00,4.1551
2882.00,4.0188
2881.00,3.9542
2880.00,4.0081
2879.00,4.2150
2878.00,4.3852
2877.00,4.4443
2876.00,4.4192
2875.00,4.5983
2874.00,5.0481
2873.00,4.7570
2872.00,4.4548
2871.00,4.2617
2870.00,4.2338
2869.00,4.1957
2868.00,4.0977
2867.00,4.0188
2866.00,3.9476
2865.00,3.8748
2864.00,3.8452
2863.00,3.9012
2862.00,4.0200
2861.00,4.1641
2860.00,4.3256
2859.00,4.4930
2858.00,4.4531
2857.00,4.1250
2856.00,3.9476
2855.00,3.9600
2854.00,4.0617
2853.00,3.9985
2852.00,3.8613
2851.00,3.8340
2850.00,3.9214
2849.00,4.0040
2848.00,4.0343
2847.00,4.1511
2846.00,4.2973
2845.00,4.1688
2844.00,3.9924
2843.00,3.9224
2842.00,3.9685
2841.00,4.0020
2840.00,3.8962
2839.00,3.6601
2838.00,3.3861
2837.00,3.1239
2836.00,2.8823
2835.00,2.6697
2834.00,2.4849
2833.00,2.3221
2832.00,2.1775
2831.00,2.0498
2830.00,1.9369
2829.00,1.8369
2828.00,1.7484
2827.00,1.6701
2826.00,1.6007
2825.00,1.5385
2824.00,1.4822
2823.00,1.4309
2822.00,1.3840
2821.00,1.3410
2820.00,1.3011
2819.00,1.2642
2818.00,1.2298
2817.00,1.1977
2816.00,1.1677
2815.00,1.1394
2814.00,1.1128
2813.00,1.0873
2812.00,1.0629
2811.00,1.0396
2810.00,1.0173
2809.00,0.9960
2808.00,0.9755
2807.00,0.9559
2806.00,0.9374
2805.00,0.9197
2804.00,0.9029
2803.00,0.8869
2802.00,0.8717
2801.00,0.8572
2800.00,0.8432
2799.00,0.8299
2798.00,0.8170
2797.00,0.8047
2796.00,0.7928
2795.00,0.7812
2794.00,0.7700
2793.00,0.7592
2792.00,0.7487
2791.00,0.7385
2790.00,0.7285
2789.00,0.7187
2788.00,0.7091
2787.00,0.6995
2786.00,0.6902
2785.00,0.6811
2784.00,0.6722
2783.00,0.6637
2782.00,0.6555
2781.00,0.6475
2780.00,0.6398
2779.00,0.6325
2778.00,0.6256
2777.00,0.6191
2776.00,0.6130
2775.00,0.6072
2774.00,0.6017
2773.00,0.5966
2772.00,0.5918
2771.00,0.5874
2770.00,0.5834
2769.00,0.5798
2768.00,0.5765
2767.00,0.5737
2766.00,0.5712
2765.00,0.5690
2764.00,0.5671
2763.00,0.5654
2762.00,0.5639
2761.00,0.5627
2760.00,0.5616
2759.00,0.5607
2758.00,0.5597
2757.00,0.5587
2756.00,0.5576
2755.00,0.5567
2754.00,0.5559
2753.00,0.5554
2752.00,0.5550
2751.00,0.5547
2750.00,0.5546
2749.00,0.5547
2748.00,0.5550
2747.00,0.5555
2746.00,0.5562
2745.00,0.5570
2744.00,0.5580
2743.00,0.5594
2742.00,0.5610
2741.00,0.5631
2740.00,0.5656
2739.00,0.5684
2738.00,0.5717
2737.00,0.5755
2736.00,0.5796
2735.00,0.5840
2734.00,0.5886
2733.00,0.5933
2732.00,0.5976
2731.00,0.6015
2730.00,0.6045
2729.00,0.6066
2728.00,0.6077
2727.00,0.6080
2726.00,0.6075
2725.00,0.6065
2724.00,0.6052
2723.00,0.6034
2722.00,0.6013
2721.00,0.5987
2720.00,0.5957
2719.00,0.5924
2718.00,0.5887
2717.00,0.5846
2716.00,0.5802
2715.00,0.5756
2714.00,0.5709
2713.00,0.5663
2712.00,0.5621
2711.00,0.5582
2710.00,0.5548
2709.00,0.5517
2708.00,0.5492
2707.00,0.5470
2706.00,0.5451
2705.00,0.5436
2704.00,0.5424
2703.00,0.5414
2702.00,0.5408
2701.00,0.5404
2700.00,0.5402
2699.00,0.5403
2698.00,0.5405
2697.00,0.5410
2696.00,0.5415
2695.00,0.5422
2694.00,0.5430
2693.00,0.5439
2692.00,0.5447
2691.00,0.5457
2690.00,0.5465
2689.00,0.5474
2688.00,0.5481
2687.00,0.5486
2686.00,0.5491
2685.00,0.5494
2684.00,0.5495
2683.00,0.5496
2682.00,0.5496
2681.00,0.5496
2680.00,0.5496
2679.00,0.5496
2678.00,0.5496
2677.00,0.5495
2676.00,0.5495
2675.00,0.5494
2674.00,0.5494
2673.00,0.5493
2672.00,0.5492
2671.00,0.5488
2670.00,0.5481
