Created as New Dataset,
cm-1,A
4000.00,0.3781
3999.00,0.3777
3998.00,0.3774
3997.00,0.3770
3996.00,0.3767
3995.00,0.3764
3994.00,0.3761
3993.00,0.3759
3992.00,0.3757
3991.00,0.3755
3990.00,0.3752
3989.00,0.3749
3988.00,0.3746
3987.00,0.3743
3986.00,0.3740
3985.00,0.3737
3984.00,0.3733
3983.00,0.3730
3982.00,0.3727
3981.00,0.3725
3980.00,0.3722
3979.00,0.3719
3978.00,0.3716
3977.00,0.3713
3976.00,0.3709
3975.00,0.3705
3974.00,0.3702
3973.00,0.3699
3972.00,0.3696
3971.00,0.3694
3970.00,0.3691
3969.00,0.3688
3968.00,0.3685
3967.00,0.3682
3966.00,0.3680
3965.00,0.3678
3964.00,0.3676
3963.00,0.3674
3962.00,0.3672
3961.00,0.3669
3960.00,0.3667
3959.00,0.3665
3958.00,0.3664
3957.00,0.3663
3956.00,0.3663
3955.00,0.3662
3954.00,0.3662
3953.00,0.3661
3952.00,0.3659
3951.00,0.3657
3950.00,0.3655
3949.00,0.3654
3948.00,0.3653
3947.00,0.3653
3946.00,0.3652
3945.00,0.3651
3944.00,0.3650
3943.00,0.3649
3942.00,0.3648
3941.00,0.3647
3940.00,0.3646
3939.00,0.3645
3938.00,0.3645
3937.00,0.3644
3936.00,0.3643
3935.00,0.3643
3934.00,0.3642
3933.00,0.3641
3932.00,0.3640
3931.00,0.3639
3930.00,0.3639
3929.00,0.3638
3928.00,0.3637
3927.00,0.3635
3926.00,0.3634
3925.00,0.3633
3924.00,0.3632
3923.00,0.3631
3922.00,0.3631
3921.00,0.3630
3920.00,0.3630
3919.00,0.3631
3918.00,0.3631
3917.00,0.3632
3916.00,0.3632
3915.00,0.3633
3914.00,0.3633
3913.00,0.3633
3912.00,0.3633
3911.00,0.3634
3910.00,0.3635
3909.00,0.3634
3908.00,0.3634
3907.00,0.3632
3906.00,0.3631
3905.00,0.3630
3904.00,0.3630
3903.00,0.3631
3902.00,0.3632
3901.00,0.3631
3900.00,0.3630
3899.00,0.3629
3898.00,0.3628
3897.00,0.3627
3896.00,0.3626
3895.00,0.3625
3894.00,0.3624
3893.00,0.3622
3892.00,0.3620
3891.00,0.3618
3890.00,0.3617
3889.00,0.3616
3888.00,0.3614
3887.00,0.3613
3886.00,0.3614
3885.00,0.3615
3884.00,0.3615
3883.00,0.3613
3882.00,0.3611
3881.00,0.3610
3880.00,0.3611
3879.00,0.3612
3878.00,0.3611
3877.00,0.3610
3876.00,0.3609
3875.00,0.3609
3874.00,0.3609
3873.00,0.3609
3872.00,0.3607
3871.00,0.3604
3870.00,0.3603
3869.00,0.3604
3868.00,0.3604
3867.00,0.3602
3866.00,0.3599
3865.00,0.3598
3864.00,0.3597
3863.00,0.3596
3862.00,0.3594
3861.00,0.3593
3860.00,0.3593
3859.00,0.3593
3858.00,0.3592
3857.00,0.3592
3856.00,0.3590
3855.00,0.3588
3854.00,0.3587
3853.00,0.3587
3852.00,0.3587
3851.00,0.3585
3850.00,0.3583
3849.00,0.3582
3848.00,0.3583
3847.00,0.3583
3846.00,0.3582
3845.00,0.3580
3844.00,0.3579
3843.00,0.3578
3842.00,0.3577
3841.00,0.3577
3840.00,0.3577
3839.00,0.3578
3838.00,0.3578
3837.00,0.3579
3836.00,0.3579
3835.00,0.3577
3834.00,0.3576
3833.00,0.3574
3832.00,0.3574
3831.00,0.3574
3830.00,0.3573
3829.00,0.3572
3828.00,0.3570
3827.00,0.3569
3826.00,0.3568
3825.00,0.3568
3824.00,0.3566
3823.00,0.3564
3822.00,0.3562
3821.00,0.3563
3820.00,0.3563
3819.00,0.3562
3818.00,0.3559
3817.00,0.3556
3816.00,0.3555
3815.00,0.3554
3814.00,0.3552
3813.00,0.3549
3812.00,0.3546
3811.00,0.3544
3810.00,0.3543
3809.00,0.3540
3808.00,0.3537
3807.00,0.3535
3806.00,0.3535
3805.00,0.3534
3804.00,0.3532
3803.00,0.3529
3802.00,0.3529
3801.00,0.3530
3800.00,0.3530
3799.00,0.3528
3798.00,0.3524
3797.00,0.3522
3796.00,0.3522
3795.00,0.3522
3794.00,0.3521
3793.00,0.3519
3792.00,0.3517
3791.00,0.3515
3790.00,0.3513
3789.00,0.3512
3788.00,0.3510
3787.00,0.3508
3786.00,0.3506
3785.00,0.3504
3784.00,0.3503
3783.00,0.3501
3782.00,0.3500
3781.00,0.3498
3780.00,0.3496
3779.00,0.3494
3778.00,0.3493
3777.00,0.3491
3776.00,0.3489
3775.00,0.3487
3774.00,0.3486
3773.00,0.3484
3772.00,0.3483
3771.00,0.3481
3770.00,0.3479
3769.00,0.3478
3768.00,0.3476
3767.00,0.3474
3766.00,0.3473
3765.00,0.3472
3764.00,0.3472
3763.00,0.3471
3762.00,0.3470
3761.00,0.3468
3760.00,0.3467
3759.00,0.3465
3758.00,0.3463
3757.00,0.3462
3756.00,0.3461
3755.00,0.3459
3754.00,0.3458
3753.00,0.3457
3752.00,0.3455
3751.00,0.3454
3750.00,0.3453
3749.00,0.3452
3748.00,0.3451
3747.00,0.3449
3746.00,0.3447
3745.00,0.3446
3744.00,0.3447
3743.00,0.3447
3742.00,0.3444
3741.00,0.3440
3740.00,0.3438
3739.00,0.3437
3738.00,0.3436
3737.00,0.3435
3736.00,0.3433
3735.00,0.3433
3734.00,0.3432
3733.00,0.3431
3732.00,0.3431
3731.00,0.3430
3730.00,0.3429
3729.00,0.3427
3728.00,0.3425
3727.00,0.3424
3726.00,0.3422
3725.00,0.3420
3724.00,0.3417
3723.00,0.3415
3722.00,0.3415
3721.00,0.3414
3720.00,0.3414
3719.00,0.3412
3718.00,0.3410
3717.00,0.3409
3716.00,0.3408
3715.00,0.3407
3714.00,0.3406
3713.00,0.3405
3712.00,0.3404
3711.00,0.3402
3710.00,0.3402
3709.00,0.3402
3708.00,0.3402
3707.00,0.3402
3706.00,0.3402
3705.00,0.3401
3704.00,0.3399
3703.00,0.3398
3702.00,0.3398
3701.00,0.3397
3700.00,0.3397
3699.00,0.3396
3698.00,0.3396
3697.00,0.3396
3696.00,0.3397
3695.00,0.3398
3694.00,0.3398
3693.00,0.3399
3692.00,0.3399
3691.00,0.3398
3690.00,0.3398
3689.00,0.3397
3688.00,0.3398
3687.00,0.3399
3686.00,0.3399
3685.00,0.3399
3684.00,0.3399
3683.00,0.3398
3682.00,0.3397
3681.00,0.3395
3680.00,0.3394
3679.00,0.3393
3678.00,0.3391
3677.00,0.3388
3676.00,0.3387
3675.00,0.3389
3674.00,0.3391
3673.00,0.3390
3672.00,0.3389
3671.00,0.3389
3670.00,0.3390
3669.00,0.3391
3668.00,0.3390
3667.00,0.3389
3666.00,0.3388
3665.00,0.3388
3664.00,0.3389
3663.00,0.3389
3662.00,0.3390
3661.00,0.3390
3660.00,0.3391
3659.00,0.3392
3658.00,0.3393
3657.00,0.3394
3656.00,0.3395
3655.00,0.3397
3654.00,0.3398
3653.00,0.3399
3652.00,0.3400
3651.00,0.3402
3650.00,0.3404
3649.00,0.3405
3648.00,0.3405
3647.00,0.3406
3646.00,0.3406
3645.00,0.3407
3644.00,0.3408
3643.00,0.3408
3642.00,0.3409
3641.00,0.3410
3640.00,0.3410
3639.00,0.3411
3638.00,0.3412
3637.00,0.3413
3636.00,0.3414
3635.00,0.3415
3634.00,0.3416
3633.00,0.3419
3632.00,0.3422
3631.00,0.3424
3630.00,0.3425
3629.00,0.3428
3628.00,0.3431
3627.00,0.3434
3626.00,0.3436
3625.00,0.3438
3624.00,0.3441
3623.00,0.3444
3622.00,0.3446
3621.00,0.3446
3620.00,0.3445
3619.00,0.3444
3618.00,0.3443
3617.00,0.3443
3616.00,0.3442
3615.00,0.3442
3614.00,0.3442
3613.00,0.3443
3612.00,0.3444
3611.00,0.3443
3610.00,0.3442
3609.00,0.3442
3608.00,0.3442
3607.00,0.3443
3606.00,0.3442
3605.00,0.3441
3604.00,0.3439
3603.00,0.3436
3602.00,0.3433
3601.00,0.3429
3600.00,0.3424
3599.00,0.3419
3598.00,0.3413
3597.00,0.3407
3596.00,0.3402
3595.00,0.3397
3594.00,0.3392
3593.00,0.3388
3592.00,0.3385
3591.00,0.3383
3590.00,0.3381
3589.00,0.3378
3588.00,0.3376
3587.00,0.3375
3586.00,0.3373
3585.00,0.3372
3584.00,0.3372
3583.00,0.3372
3582.00,0.3373
3581.00,0.3373
3580.00,0.3374
3579.00,0.3373
3578.00,0.3373
3577.00,0.3373
3576.00,0.3374
3575.00,0.3375
3574.00,0.3376
3573.00,0.3377
3572.00,0.3378
3571.00,0.3379
3570.00,0.3380
3569.00,0.3381
3568.00,0.3382
3567.00,0.3384
3566.00,0.3386
3565.00,0.3388
3564.00,0.3390
3563.00,0.3392
3562.00,0.3394
3561.00,0.3396
3560.00,0.3398
3559.00,0.3400
3558.00,0.3403
3557.00,0.3405
3556.00,0.3408
3555.00,0.3410
3554.00,0.3413
3553.00,0.3416
3552.00,0.3420
3551.00,0.3424
3550.00,0.3429
3549.00,0.3433
3548.00,0.3437
3547.00,0.3441
3546.00,0.3445
3545.00,0.3449
3544.00,0.3453
3543.00,0.3457
3542.00,0.3461
3541.00,0.3465
3540.00,0.3469
3539.00,0.3473
3538.00,0.3476
3537.00,0.3479
3536.00,0.3483
3535.00,0.3486
3534.00,0.3488
3533.00,0.3489
3532.00,0.3491
3531.00,0.3492
3530.00,0.3495
3529.00,0.3498
3528.00,0.3501
3527.00,0.3504
3526.00,0.3507
3525.00,0.3510
3524.00,0.3514
3523.00,0.3517
3522.00,0.3520
3521.00,0.3523
3520.00,0.3526
3519.00,0.3529
3518.00,0.3533
3517.00,0.3536
3516.00,0.3540
3515.00,0.3543
3514.00,0.3547
3513.00,0.3552
3512.00,0.3557
3511.00,0.3562
3510.00,0.3567
3509.00,0.3572
3508.00,0.3576
3507.00,0.3581
3506.00,0.3586
3505.00,0.3591
3504.00,0.3596
3503.00,0.3601
3502.00,0.3606
3501.00,0.3610
3500.00,0.3615
3499.00,0.3619
3498.00,0.3624
3497.00,0.3630
3496.00,0.3636
3495.00,0.3642
3494.00,0.3648
3493.00,0.3655
3492.00,0.3661
3491.00,0.3668
3490.00,0.3675
3489.00,0.3682
3488.00,0.3688
3487.00,0.3694
3486.00,0.3700
3485.00,0.3706
3484.00,0.3712
3483.00,0.3718
3482.00,0.3723
3481.00,0.3728
3480.00,0.3733
3479.00,0.3738
3478.00,0.3742
3477.00,0.3747
3476.00,0.3751
3475.00,0.3755
3474.00,0.3760
3473.00,0.3765
3472.00,0.3770
3471.00,0.3776
3470.00,0.3780
3469.00,0.3785
3468.00,0.3789
3467.00,0.3794
3466.00,0.3799
3465.00,0.3804
3464.00,0.3809
3463.00,0.3814
3462.00,0.3819
3461.00,0.3825
3460.00,0.3831
3459.00,0.3837
3458.00,0.3842
3457.00,0.3848
3456.00,0.3853
3455.00,0.3859
3454.00,0.3866
3453.00,0.3872
3452.00,0.3879
3451.00,0.3884
3450.00,0.3890
3449.00,0.3895
3448.00,0.3901
3447.00,0.3907
3446.00,0.3914
3445.00,0.3920
3444.00,0.3927
3443.00,0.3934
3442.00,0.3940
3441.00,0.3947
3440.00,0.3954
3439.00,0.3961
3438.00,0.3968
3437.00,0.3975
3436.00,0.3981
3435.00,0.3987
3434.00,0.3994
3433.00,0.4001
3432.00,0.4008
3431.00,0.4015
3430.00,0.4021
3429.00,0.4028
3428.00,0.4036
3427.00,0.4043
3426.00,0.4051
3425.00,0.4058
3424.00,0.4065
3423.00,0.4072
3422.00,0.4078
3421.00,0.4085
3420.00,0.4092
3419.00,0.4100
3418.00,0.4108
3417.00,0.4117
3416.00,0.4125
3415.00,0.4134
3414.00,0.4143
3413.00,0.4152
3412.00,0.4160
3411.00,0.4169
3410.00,0.4176
3409.00,0.4184
3408.00,0.4193
3407.00,0.4202
3406.00,0.4211
3405.00,0.4220
3404.00,0.4229
3403.00,0.4238
3402.00,0.4247
3401.00,0.4256
3400.00,0.4266
3399.00,0.4276
3398.00,0.4285
3397.00,0.4294
3396.00,0.4303
3395.00,0.4312
3394.00,0.4321
3393.00,0.4331
3392.00,0.4341
3391.00,0.4351
3390.00,0.4362
3389.00,0.4373
3388.00,0.4384
3387.00,0.4394
3386.00,0.4404
3385.00,0.4414
3384.00,0.4424
3383.00,0.4434
3382.00,0.4444
3381.00,0.4455
3380.00,0.4467
3379.00,0.4479
3378.00,0.4490
3377.00,0.4501
3376.00,0.4512
3375.00,0.4523
3374.00,0.4535
3373.00,0.4547
3372.00,0.4560
3371.00,0.4573
3370.00,0.4586
3369.00,0.4598
3368.00,0.4611
3367.00,0.4624
3366.00,0.4637
3365.00,0.4651
3364.00,0.4666
3363.00,0.4681
3362.00,0.4696
3361.00,0.4710
3360.00,0.4724
3359.00,0.4738
3358.00,0.4752
3357.00,0.4766
3356.00,0.4781
3355.00,0.4796
3354.00,0.4811
3353.00,0.4827
3352.00,0.4843
3351.00,0.4858
3350.00,0.4873
3349.00,0.4887
3348.00,0.4902
3347.00,0.4917
3346.00,0.4931
3345.00,0.4945
3344.00,0.4958
3343.00,0.4970
3342.00,0.4982
3341.00,0.4994
3340.00,0.5006
3339.00,0.5019
3338.00,0.5031
3337.00,0.5042
3336.00,0.5051
3335.00,0.5059
3334.00,0.5066
3333.00,0.5073
3332.00,0.5079
3331.00,0.5085
3330.00,0.5090
3329.00,0.5095
3328.00,0.5099
3327.00,0.5102
3326.00,0.5104
3325.00,0.5105
3324.00,0.5104
3323.00,0.5104
3322.00,0.5102
3321.00,0.5101
3320.00,0.5098
3319.00,0.5095
3318.00,0.5091
3317.00,0.5086
3316.00,0.5080
3315.00,0.5074
3314.00,0.5068
3313.00,0.5061
3312.00,0.5054
3311.00,0.5046
3310.00,0.5039
3309.00,0.5031
3308.00,0.5024
3307.00,0.5017
3306.00,0.5009
3305.00,0.5002
3304.00,0.4994
3303.00,0.4985
3302.00,0.4976
3301.00,0.4968
3300.00,0.4961
3299.00,0.4954
3298.00,0.4948
3297.00,0.4942
3296.00,0.4936
3295.00,0.4930
3294.00,0.4925
3293.00,0.4921
3292.00,0.4917
3291.00,0.4913
3290.00,0.4909
3289.00,0.4907
3288.00,0.4904
3287.00,0.4902
3286.00,0.4900
3285.00,0.4898
3284.00,0.4897
3283.00,0.4896
3282.00,0.4895
3281.00,0.4895
3280.00,0.4895
3279.00,0.4896
3278.00,0.4898
3277.00,0.4900
3276.00,0.4902
3275.00,0.4904
3274.00,0.4906
3273.00,0.4909
3272.00,0.4912
3271.00,0.4915
3270.00,0.4919
3269.00,0.4923
3268.00,0.4927
3267.00,0.4931
3266.00,0.4936
3265.00,0.4941
3264.00,0.4946
3263.00,0.4951
3262.00,0.4956
3261.00,0.4962
3260.00,0.4968
3259.00,0.4973
3258.00,0.4978
3257.00,0.4983
3256.00,0.4988
3255.00,0.4994
3254.00,0.4999
3253.00,0.5004
3252.00,0.5010
3251.00,0.5015
3250.00,0.5019
3249.00,0.5023
3248.00,0.5027
3247.00,0.5031
3246.00,0.5035
3245.00,0.5040
3244.00,0.5045
3243.00,0.5049
3242.00,0.5053
3241.00,0.5056
3240.00,0.5058
3239.00,0.5060
3238.00,0.5061
3237.00,0.5063
3236.00,0.5066
3235.00,0.5068
3234.00,0.5070
3233.00,0.5072
3232.00,0.5073
3231.00,0.5074
3230.00,0.5075
3229.00,0.5075
3228.00,0.5076
3227.00,0.5076
3226.00,0.5076
3225.00,0.5076
3224.00,0.5076
3223.00,0.5075
3222.00,0.5075
3221.00,0.5075
3220.00,0.5075
3219.00,0.5075
3218.00,0.5074
3217.00,0.5072
3216.00,0.5071
3215.00,0.5069
3214.00,0.5068
3213.00,0.5066
3212.00,0.5064
3211.00,0.5062
3210.00,0.5061
3209.00,0.5059
3208.00,0.5058
3207.00,0.5056
3206.00,0.5054
3205.00,0.5053
3204.00,0.5051
3203.00,0.5048
3202.00,0.5046
3201.00,0.5043
3200.00,0.5040
3199.00,0.5037
3198.00,0.5034
3197.00,0.5031
3196.00,0.5029
3195.00,0.5026
3194.00,0.5023
3193.00,0.5020
3192.00,0.5017
3191.00,0.5014
3190.00,0.5011
3189.00,0.5009
3188.00,0.5005
3187.00,0.5001
3186.00,0.4996
3185.00,0.4991
3184.00,0.4986
3183.00,0.4980
3182.00,0.4975
3181.00,0.4970
3180.00,0.4964
3179.00,0.4958
3178.00,0.4952
3177.00,0.4946
3176.00,0.4940
3175.00,0.4933
3174.00,0.4926
3173.00,0.4919
3172.00,0.4912
3171.00,0.4905
3170.00,0.4898
3169.00,0.4890
3168.00,0.4883
3167.00,0.4877
3166.00,0.4870
3165.00,0.4862
3164.00,0.4855
3163.00,0.4847
3162.00,0.4839
3161.00,0.4832
3160.00,0.4825
3159.00,0.4818
3158.00,0.4811
3157.00,0.4805
3156.00,0.4798
3155.00,0.4791
3154.00,0.4784
3153.00,0.4778
3152.00,0.4772
3151.00,0.4766
3150.00,0.4760
3149.00,0.4754
3148.00,0.4748
3147.00,0.4742
3146.00,0.4736
3145.00,0.4730
3144.00,0.4724
3143.00,0.4718
3142.00,0.4713
3141.00,0.4707
3140.00,0.4701
3139.00,0.4695
3138.00,0.4690
3137.00,0.4686
3136.00,0.4683
3135.00,0.4680
3134.00,0.4676
3133.00,0.4673
3132.00,0.4671
3131.00,0.4668
3130.00,0.4667
3129.00,0.4666
3128.00,0.4666
3127.00,0.4666
3126.00,0.4666
3125.00,0.4667
3124.00,0.4669
3123.00,0.4671
3122.00,0.4673
3121.00,0.4676
3120.00,0.4678
3119.00,0.4680
3118.00,0.4683
3117.00,0.4687
3116.00,0.4691
3115.00,0.4695
3114.00,0.4700
3113.00,0.4705
3112.00,0.4710
3111.00,0.4715
3110.00,0.4721
3109.00,0.4728
3108.00,0.4735
3107.00,0.4744
3106.00,0.4752
3105.00,0.4760
3104.00,0.4767
3103.00,0.4774
3102.00,0.4782
3101.00,0.4790
3100.00,0.4799
3099.00,0.4808
3098.00,0.4819
3097.00,0.4831
3096.00,0.4844
3095.00,0.4859
3094.00,0.4874
3093.00,0.4891
3092.00,0.4910
3091.00,0.4931
3090.00,0.4953
3089.00,0.4977
3088.00,0.5003
3087.00,0.5029
3086.00,0.5057
3085.00,0.5085
3084.00,0.5113
3083.00,0.5142
3082.00,0.5173
3081.00,0.5205
3080.00,0.5239
3079.00,0.5275
3078.00,0.5313
3077.00,0.5354
3076.00,0.5396
3075.00,0.5439
3074.00,0.5482
3073.00,0.5524
3072.00,0.5567
3071.00,0.5609
3070.00,0.5652
3069.00,0.5696
3068.00,0.5740
3067.00,0.5784
3066.00,0.5828
3065.00,0.5870
3064.00,0.5910
3063.00,0.5947
3062.00,0.5980
3061.00,0.6012
3060.00,0.6040
3059.00,0.6067
3058.00,0.6094
3057.00,0.6120
3056.00,0.6148
3055.00,0.6177
3054.00,0.6209
3053.00,0.6243
3052.00,0.6279
3051.00,0.6317
3050.00,0.6357
3049.00,0.6398
3048.00,0.6441
3047.00,0.6486
3046.00,0.6533
3045.00,0.6581
3044.00,0.6628
3043.00,0.6674
3042.00,0.6720
3041.00,0.6765
3040.00,0.6811
3039.00,0.6858
3038.00,0.6906
3037.00,0.6957
3036.00,0.7011
3035.00,0.7071
3034.00,0.7135
3033.00,0.7205
3032.00,0.7278
3031.00,0.7357
3030.00,0.7440
3029.00,0.7527
3028.00,0.7617
3027.00,0.7708
3026.00,0.7802
3025.00,0.7899
3024.00,0.8000
3023.00,0.8105
3022.00,0.8214
3021.00,0.8326
3020.00,0.8441
3019.00,0.8560
3018.00,0.8679
3017.00,0.8799
3016.00,0.8918
3015.00,0.9037
3014.00,0.9159
3013.00,0.9284
3012.00,0.9414
3011.00,0.9548
3010.00,0.9688
3009.00,0.9833
3008.00,0.9983
3007.00,1.0139
3006.00,1.0301
3005.00,1.0470
3004.00,1.0643
3003.00,1.0822
3002.00,1.1005
3001.00,1.1196
3000.00,1.1395
2999.00,1.1605
2998.00,1.1830
2997.00,1.2072
2996.00,1.2337
2995.00,1.2631
2994.00,1.2962
2993.00,1.3336
2992.00,1.3755
2991.00,1.4226
2990.00,1.4752
2989.00,1.5338
2988.00,1.5988
2987.00,1.6707
2986.00,1.7504
2985.00,1.8389
2984.00,1.9367
2983.00,2.0447
2982.00,2.1636
2981.00,2.2935
2980.00,2.4347
2979.00,2.5888
2978.00,2.7605
2977.00,2.9552
2976.00,3.1768
2975.00,3.4216
2974.00,3.6518
2973.00,3.7550
2972.00,3.7515
2971.00,3.7533
2970.00,3.8869
2969.00,4.1544
2968.00,4.0038
2967.00,3.7366
2966.00,3.5749
2965.00,3.5728
2964.00,3.6442
2963.00,3.7486
2962.00,3.9533
2961.00,4.0810
2960.00,4.0245
2959.00,4.0005
2958.00,4.1427
2957.00,4.4549
2956.00,4.3849
2955.00,4.2873
2954.00,4.4417
2953.00,4.2506
2952.00,3.9474
2951.00,3.7560
2950.00,3.7263
2949.00,3.7772
2948.00,3.8588
2947.00,4.0202
2946.00,4.0926
2945.00,3.9703
2944.00,3.8682
2943.00,3.9167
2942.00,4.1233
2941.00,4.1836
2940.00,3.9908
2939.00,3.8240
2938.00,3.7888
2937.00,3.8617
2936.00,4.0349
2935.00,4.2904
2934.00,4.2134
2933.00,3.9784
2932.00,3.8447
2931.00,3.8220
2930.00,3.7855
2929.00,3.7030
2928.00,3.6517
2927.00,3.6693
2926.00,3.7685
2925.00,3.9458
2924.00,4.2684
2923.00,4.6507
2922.00,4.4706
2921.00,4.2453
2920.00,4.2007
2919.00,4.2210
2918.00,4.0973
2917.00,4.0280
2916.00,4.0763
2915.00,4.1813
2914.00,4.2126
2913.00,4.1137
2912.00,3.9471
2911.00,3.8053
2910.00,3.7609
2909.00,3.8112
2908.00,3.8888
2907.00,3.9073
2906.00,3.8743
2905.00,3.8345
2904.00,3.8120
2903.00,3.8544
2902.00,3.9980
2901.00,4.1299
2900.00,4.1202
2899.00,4.0945
2898.00,4.2328
2897.00,4.6307
2896.00,4.9081
2895.00,4.7172
2894.00,4.5534
2893.00,4.5175
2892.00,4.4617
2891.00,4.3058
2890.00,4.2231
2889.00,4.2575
2888.00,4.4244
2887.00,4.7871
2886.00,4.7582
2885.00,4.4245
2884.00,4.2535
2883.00,4.2456
2882.00,4.3221
2881.00,4.2589
2880.00,4.2538
2879.00,4.3655
2878.00,4.2216
2877.00,3.9776
2876.00,3.8191
2875.00,3.8104
2874.00,3.8829
2873.00,3.9521
2872.00,4.0213
2871.00,4.0729
2870.00,4.2486
2869.00,4.6926
2868.00,4.5700
2867.00,4.3428
2866.00,4.2568
2865.00,4.3021
2864.00,4.2514
2863.00,4.1002
2862.00,4.0553
2861.00,3.9563
2860.00,3.7858
2859.00,3.6655
2858.00,3.6602
2857.00,3.7903
2856.00,4.0123
2855.00,4.2406
2854.00,4.3948
2853.00,4.6004
2852.00,4.6915
2851.00,4.4184
2850.00,4.1143
2849.00,3.9527
2848.00,3.9185
2847.00,4.0156
2846.00,4.3200
2845.00,4.5221
2844.00,4.2497
2843.00,4.0215
2842.00,3.9560
2841.00,3.9718
2840.00,3.9191
2839.00,3.7111
2838.00,3.4285
2837.00,3.1672
2836.00,2.9452
2835.00,2.7537
2834.00,2.5803
2833.00,2.4184
2832.00,2.2695
2831.00,2.1363
2830.00,2.0180
2829.00,1.9122
2828.00,1.8171
2827.00,1.7313
2826.00,1.6540
2825.00,1.5839
2824.00,1.5203
2823.00,1.4624
2822.00,1.4097
2821.00,1.3612
2820.00,1.3165
2819.00,1.2752
2818.00,1.2369
2817.00,1.2014
2816.00,1.1684
2815.00,1.1376
2814.00,1.1089
2813.00,1.0817
2812.00,1.0560
2811.00,1.0314
2810.00,1.0080
2809.00,0.9858
2808.00,0.9648
2807.00,0.9451
2806.00,0.9265
2805.00,0.9089
2804.00,0.8922
2803.00,0.8764
2802.00,0.8613
2801.00,0.8468
2800.00,0.8329
2799.00,0.8198
2798.00,0.8073
2797.00,0.7953
2796.00,0.7839
2795.00,0.7728
2794.00,0.7621
2793.00,0.7516
2792.00,0.7413
2791.00,0.7313
2790.00,0.7214
2789.00,0.7118
2788.00,0.7024
2787.00,0.6932
2786.00,0.6842
2785.00,0.6754
2784.00,0.6668
2783.00,0.6584
2782.00,0.6505
2781.00,0.6429
2780.00,0.6356
2779.00,0.6287
2778.00,0.6221
2777.00,0.6158
2776.00,0.6099
2775.00,0.6043
2774.00,0.5990
2773.00,0.5941
2772.00,0.5895
2771.00,0.5852
2770.00,0.5813
2769.00,0.5777
2768.00,0.5744
2767.00,0.5716
2766.00,0.5690
2765.00,0.5667
2764.00,0.5646
2763.00,0.5629
2762.00,0.5614
2761.00,0.5600
2760.00,0.5587
2759.00,0.5575
2758.00,0.5563
2757.00,0.5552
2756.00,0.5541
2755.00,0.5530
2754.00,0.5521
2753.00,0.5513
2752.00,0.5508
2751.00,0.5506
2750.00,0.5505
2749.00,0.5506
2748.00,0.5509
2747.00,0.5514
2746.00,0.5522
2745.00,0.5533
2744.00,0.5547
2743.00,0.5564
2742.00,0.5584
2741.00,0.5608
2740.00,0.5636
2739.00,0.5668
2738.00,0.5705
2737.00,0.5748
2736.00,0.5795
2735.00,0.5846
2734.00,0.5899
2733.00,0.5950
2732.00,0.5998
2731.00,0.6039
2730.00,0.6070
2729.00,0.6090
2728.00,0.6099
2727.00,0.6097
2726.00,0.6088
2725.00,0.6074
2724.00,0.6055
2723.00,0.6033
2722.00,0.6007
2721.00,0.5978
2720.00,0.5946
2719.00,0.5911
2718.00,0.5873
2717.00,0.5831
2716.00,0.5788
2715.00,0.5742
2714.00,0.5697
2713.00,0.5652
2712.00,0.5611
2711.00,0.5572
2710.00,0.5538
2709.00,0.5508
2708.00,0.5482
2707.00,0.5460
2706.00,0.5441
2705.00,0.5425
2704.00,0.5413
2703.00,0.5403
2702.00,0.5397
2701.00,0.5392
2700.00,0.5390
2699.00,0.5391
2698.00,0.5393
2697.00,0.5397
2696.00,0.5401
2695.00,0.5406
2694.00,0.5412
2693.00,0.5420
2692.00,0.5430
2691.00,0.5440
2690.00,0.5450
2689.00,0.5460
2688.00,0.5468
2687.00,0.5476
2686.00,0.5483
2685.00,0.5489
2684.00,0.5495
2683.00,0.5500
2682.00,0.5505
2681.00,0.5509
2680.00,0.5513
2679.00,0.5516
2678.00,0.5520
2677.00,0.5524
2676.00,0.5528
2675.00,0.5531
2674.00,0.5535
2673.00,0.5538
2672.00,0.5539
2671.00,0.5539
2670.00,0.5537
