Created as New Dataset,
cm-1,A
4000.00,0.3126
3999.00,0.3123
3998.00,0.3120
3997.00,0.3118
3996.00,0.3115
3995.00,0.3112
3994.00,0.3109
3993.00,0.3107
3992.00,0.3103
3991.00,0.3100
3990.00,0.3097
3989.00,0.3093
3988.00,0.3088
3987.00,0.3084
3986.00,0.3081
3985.00,0.3078
3984.00,0.3074
3983.00,0.3071
3982.00,0.3067
3981.00,0.3063
3980.00,0.3059
3979.00,0.3055
3978.00,0.3051
3977.00,0.3048
3976.00,0.3046
3975.00,0.3044
3974.00,0.3042
3973.00,0.3040
3972.00,0.3038
3971.00,0.3035
3970.00,0.3032
3969.00,0.3030
3968.00,0.3027
3967.00,0.3025
3966.00,0.3023
3965.00,0.3022
3964.00,0.3021
3963.00,0.3020
3962.00,0.3018
3961.00,0.3016
3960.00,0.3014
3959.00,0.3013
3958.00,0.3013
3957.00,0.3012
3956.00,0.3010
3955.00,0.3009
3954.00,0.3008
3953.00,0.3007
3952.00,0.3006
3951.00,0.3004
3950.00,0.3003
3949.00,0.3001
3948.00,0.2999
3947.00,0.2997
3946.00,0.2995
3945.00,0.2995
3944.00,0.2994
3943.00,0.2993
3942.00,0.2992
3941.00,0.2991
3940.00,0.2989
3939.00,0.2988
3938.00,0.2986
3937.00,0.2985
3936.00,0.2983
3935.00,0.2982
3934.00,0.2983
3933.00,0.2983
3932.00,0.2984
3931.00,0.2985
3930.00,0.2985
3929.00,0.2986
3928.00,0.2986
3927.00,0.2986
3926.00,0.2985
3925.00,0.2984
3924.00,0.2983
3923.00,0.2983
3922.00,0.2984
3921.00,0.2986
3920.00,0.2987
3919.00,0.2988
3918.00,0.2988
3917.00,0.2987
3916.00,0.2986
3915.00,0.2985
3914.00,0.2984
3913.00,0.2983
3912.00,0.2981
3911.00,0.2978
3910.00,0.2975
3909.00,0.2974
3908.00,0.2974
3907.00,0.2976
3906.00,0.2978
3905.00,0.2981
3904.00,0.2983
3903.00,0.2985
3902.00,0.2989
3901.00,0.2992
3900.00,0.2994
3899.00,0.2992
3898.00,0.2988
3897.00,0.2984
3896.00,0.2980
3895.00,0.2977
3894.00,0.2975
3893.00,0.2974
3892.00,0.2973
3891.00,0.2971
3890.00,0.2970
3889.00,0.2971
3888.00,0.2973
3887.00,0.2975
3886.00,0.2974
3885.00,0.2973
3884.00,0.2973
3883.00,0.2975
3882.00,0.2977
3881.00,0.2977
3880.00,0.2974
3879.00,0.2971
3878.00,0.2968
3877.00,0.2967
3876.00,0.2967
3875.00,0.2966
3874.00,0.2964
3873.00,0.2964
3872.00,0.2965
3871.00,0.2967
3870.00,0.2967
3869.00,0.2966
3868.00,0.2964
3867.00,0.2965
3866.00,0.2965
3865.00,0.2963
3864.00,0.2960
3863.00,0.2956
3862.00,0.2953
3861.00,0.2950
3860.00,0.2948
3859.00,0.2947
3858.00,0.2947
3857.00,0.2949
3856.00,0.2952
3855.00,0.2955
3854.00,0.2958
3853.00,0.2961
3852.00,0.2964
3851.00,0.2965
3850.00,0.2964
3849.00,0.2960
3848.00,0.2954
3847.00,0.2947
3846.00,0.2942
3845.00,0.2939
3844.00,0.2938
3843.00,0.2938
3842.00,0.2938
3841.00,0.2940
3840.00,0.2943
3839.00,0.2946
3838.00,0.2948
3837.00,0.2950
3836.00,0.2950
3835.00,0.2951
3834.00,0.2950
3833.00,0.2947
3832.00,0.2943
3831.00,0.2937
3830.00,0.2931
3829.00,0.2927
3828.00,0.2924
3827.00,0.2921
3826.00,0.2919
3825.00,0.2918
3824.00,0.2920
3823.00,0.2924
3822.00,0.2927
3821.00,0.2928
3820.00,0.2928
3819.00,0.2928
3818.00,0.2930
3817.00,0.2930
3816.00,0.2926
3815.00,0.2919
3814.00,0.2914
3813.00,0.2910
3812.00,0.2907
3811.00,0.2904
3810.00,0.2900
3809.00,0.2898
3808.00,0.2896
3807.00,0.2893
3806.00,0.2891
3805.00,0.2892
3804.00,0.2895
3803.00,0.2899
3802.00,0.2900
3801.00,0.2898
3800.00,0.2896
3799.00,0.2895
3798.00,0.2894
3797.00,0.2891
3796.00,0.2885
3795.00,0.2879
3794.00,0.2873
3793.00,0.2869
3792.00,0.2865
3791.00,0.2861
3790.00,0.2857
3789.00,0.2854
3788.00,0.2851
3787.00,0.2850
3786.00,0.2849
3785.00,0.2848
3784.00,0.2847
3783.00,0.2847
3782.00,0.2847
3781.00,0.2847
3780.00,0.2846
3779.00,0.2844
3778.00,0.2842
3777.00,0.2841
3776.00,0.2840
3775.00,0.2838
3774.00,0.2836
3773.00,0.2834
3772.00,0.2833
3771.00,0.2833
3770.00,0.2833
3769.00,0.2833
3768.00,0.2834
3767.00,0.2836
3766.00,0.2836
3765.00,0.2834
3764.00,0.2830
3763.00,0.2828
3762.00,0.2826
3761.00,0.2824
3760.00,0.2822
3759.00,0.2820
3758.00,0.2819
3757.00,0.2818
3756.00,0.2818
3755.00,0.2818
3754.00,0.2819
3753.00,0.2820
3752.00,0.2820
3751.00,0.2820
3750.00,0.2823
3749.00,0.2825
3748.00,0.2828
3747.00,0.2832
3746.00,0.2836
3745.00,0.2835
3744.00,0.2828
3743.00,0.2821
3742.00,0.2817
3741.00,0.2815
3740.00,0.2813
3739.00,0.2810
3738.00,0.2807
3737.00,0.2804
3736.00,0.2804
3735.00,0.2805
3734.00,0.2808
3733.00,0.2810
3732.00,0.2808
3731.00,0.2803
3730.00,0.2798
3729.00,0.2794
3728.00,0.2790
3727.00,0.2785
3726.00,0.2780
3725.00,0.2777
3724.00,0.2775
3723.00,0.2774
3722.00,0.2773
3721.00,0.2771
3720.00,0.2768
3719.00,0.2766
3718.00,0.2763
3717.00,0.2761
3716.00,0.2759
3715.00,0.2758
3714.00,0.2758
3713.00,0.2758
3712.00,0.2759
3711.00,0.2761
3710.00,0.2763
3709.00,0.2764
3708.00,0.2763
3707.00,0.2760
3706.00,0.2757
3705.00,0.2754
3704.00,0.2752
3703.00,0.2750
3702.00,0.2749
3701.00,0.2749
3700.00,0.2748
3699.00,0.2748
3698.00,0.2747
3697.00,0.2746
3696.00,0.2745
3695.00,0.2745
3694.00,0.2746
3693.00,0.2749
3692.00,0.2752
3691.00,0.2756
3690.00,0.2759
3689.00,0.2761
3688.00,0.2762
3687.00,0.2762
3686.00,0.2760
3685.00,0.2758
3684.00,0.2753
3683.00,0.2748
3682.00,0.2744
3681.00,0.2742
3680.00,0.2741
3679.00,0.2742
3678.00,0.2744
3677.00,0.2748
3676.00,0.2751
3675.00,0.2755
3674.00,0.2759
3673.00,0.2764
3672.00,0.2767
3671.00,0.2767
3670.00,0.2764
3669.00,0.2759
3668.00,0.2754
3667.00,0.2751
3666.00,0.2748
3665.00,0.2744
3664.00,0.2740
3663.00,0.2737
3662.00,0.2735
3661.00,0.2734
3660.00,0.2735
3659.00,0.2737
3658.00,0.2740
3657.00,0.2743
3656.00,0.2745
3655.00,0.2748
3654.00,0.2753
3653.00,0.2759
3652.00,0.2764
3651.00,0.2768
3650.00,0.2771
3649.00,0.2775
3648.00,0.2780
3647.00,0.2783
3646.00,0.2782
3645.00,0.2778
3644.00,0.2773
3643.00,0.2767
3642.00,0.2761
3641.00,0.2756
3640.00,0.2753
3639.00,0.2752
3638.00,0.2752
3637.00,0.2754
3636.00,0.2756
3635.00,0.2759
3634.00,0.2761
3633.00,0.2764
3632.00,0.2769
3631.00,0.2775
3630.00,0.2782
3629.00,0.2788
3628.00,0.2793
3627.00,0.2796
3626.00,0.2799
3625.00,0.2800
3624.00,0.2800
3623.00,0.2799
3622.00,0.2799
3621.00,0.2800
3620.00,0.2801
3619.00,0.2802
3618.00,0.2803
3617.00,0.2803
3616.00,0.2804
3615.00,0.2804
3614.00,0.2803
3613.00,0.2801
3612.00,0.2800
3611.00,0.2800
3610.00,0.2799
3609.00,0.2799
3608.00,0.2798
3607.00,0.2796
3606.00,0.2793
3605.00,0.2791
3604.00,0.2787
3603.00,0.2782
3602.00,0.2777
3601.00,0.2772
3600.00,0.2768
3599.00,0.2763
3598.00,0.2759
3597.00,0.2755
3596.00,0.2751
3595.00,0.2746
3594.00,0.2741
3593.00,0.2737
3592.00,0.2734
3591.00,0.2733
3590.00,0.2733
3589.00,0.2733
3588.00,0.2733
3587.00,0.2733
3586.00,0.2732
3585.00,0.2731
3584.00,0.2729
3583.00,0.2727
3582.00,0.2723
3581.00,0.2719
3580.00,0.2716
3579.00,0.2714
3578.00,0.2713
3577.00,0.2713
3576.00,0.2713
3575.00,0.2713
3574.00,0.2714
3573.00,0.2715
3572.00,0.2716
3571.00,0.2718
3570.00,0.2721
3569.00,0.2724
3568.00,0.2728
3567.00,0.2733
3566.00,0.2738
3565.00,0.2742
3564.00,0.2744
3563.00,0.2745
3562.00,0.2745
3561.00,0.2745
3560.00,0.2745
3559.00,0.2746
3558.00,0.2747
3557.00,0.2750
3556.00,0.2753
3555.00,0.2756
3554.00,0.2760
3553.00,0.2763
3552.00,0.2766
3551.00,0.2770
3550.00,0.2774
3549.00,0.2778
3548.00,0.2782
3547.00,0.2787
3546.00,0.2791
3545.00,0.2795
3544.00,0.2799
3543.00,0.2802
3542.00,0.2804
3541.00,0.2806
3540.00,0.2807
3539.00,0.2808
3538.00,0.2810
3537.00,0.2812
3536.00,0.2815
3535.00,0.2818
3534.00,0.2821
3533.00,0.2824
3532.00,0.2827
3531.00,0.2829
3530.00,0.2831
3529.00,0.2834
3528.00,0.2837
3527.00,0.2840
3526.00,0.2843
3525.00,0.2847
3524.00,0.2851
3523.00,0.2855
3522.00,0.2858
3521.00,0.2861
3520.00,0.2864
3519.00,0.2868
3518.00,0.2871
3517.00,0.2875
3516.00,0.2879
3515.00,0.2883
3514.00,0.2886
3513.00,0.2890
3512.00,0.2894
3511.00,0.2898
3510.00,0.2902
3509.00,0.2906
3508.00,0.2910
3507.00,0.2915
3506.00,0.2920
3505.00,0.2924
3504.00,0.2928
3503.00,0.2932
3502.00,0.2936
3501.00,0.2940
3500.00,0.2945
3499.00,0.2950
3498.00,0.2954
3497.00,0.2958
3496.00,0.2964
3495.00,0.2970
3494.00,0.2977
3493.00,0.2984
3492.00,0.2990
3491.00,0.2996
3490.00,0.3003
3489.00,0.3010
3488.00,0.3017
3487.00,0.3024
3486.00,0.3031
3485.00,0.3038
3484.00,0.3044
3483.00,0.3049
3482.00,0.3054
3481.00,0.3060
3480.00,0.3065
3479.00,0.3070
3478.00,0.3074
3477.00,0.3077
3476.00,0.3081
3475.00,0.3084
3474.00,0.3088
3473.00,0.3092
3472.00,0.3096
3471.00,0.3101
3470.00,0.3105
3469.00,0.3110
3468.00,0.3115
3467.00,0.3119
3466.00,0.3124
3465.00,0.3128
3464.00,0.3132
3463.00,0.3138
3462.00,0.3143
3461.00,0.3149
3460.00,0.3154
3459.00,0.3159
3458.00,0.3164
3457.00,0.3170
3456.00,0.3175
3455.00,0.3181
3454.00,0.3187
3453.00,0.3193
3452.00,0.3200
3451.00,0.3206
3450.00,0.3213
3449.00,0.3220
3448.00,0.3227
3447.00,0.3234
3446.00,0.3240
3445.00,0.3247
3444.00,0.3254
3443.00,0.3260
3442.00,0.3266
3441.00,0.3272
3440.00,0.3279
3439.00,0.3285
3438.00,0.3292
3437.00,0.3298
3436.00,0.3304
3435.00,0.3310
3434.00,0.3316
3433.00,0.3322
3432.00,0.3329
3431.00,0.3336
3430.00,0.3342
3429.00,0.3348
3428.00,0.3354
3427.00,0.3360
3426.00,0.3366
3425.00,0.3373
3424.00,0.3380
3423.00,0.3388
3422.00,0.3396
3421.00,0.3404
3420.00,0.3412
3419.00,0.3420
3418.00,0.3428
3417.00,0.3435
3416.00,0.3443
3415.00,0.3451
3414.00,0.3459
3413.00,0.3468
3412.00,0.3477
3411.00,0.3486
3410.00,0.3495
3409.00,0.3503
3408.00,0.3511
3407.00,0.3520
3406.00,0.3528
3405.00,0.3537
3404.00,0.3546
3403.00,0.3555
3402.00,0.3563
3401.00,0.3572
3400.00,0.3582
3399.00,0.3591
3398.00,0.3601
3397.00,0.3610
3396.00,0.3619
3395.00,0.3628
3394.00,0.3637
3393.00,0.3647
3392.00,0.3656
3391.00,0.3666
3390.00,0.3675
3389.00,0.3685
3388.00,0.3694
3387.00,0.3704
3386.00,0.3714
3385.00,0.3724
3384.00,0.3735
3383.00,0.3746
3382.00,0.3757
3381.00,0.3768
3380.00,0.3779
3379.00,0.3790
3378.00,0.3801
3377.00,0.3812
3376.00,0.3823
3375.00,0.3834
3374.00,0.3846
3373.00,0.3858
3372.00,0.3870
3371.00,0.3882
3370.00,0.3894
3369.00,0.3907
3368.00,0.3920
3367.00,0.3934
3366.00,0.3947
3365.00,0.3960
3364.00,0.3973
3363.00,0.3987
3362.00,0.4000
3361.00,0.4015
3360.00,0.4029
3359.00,0.4043
3358.00,0.4057
3357.00,0.4071
3356.00,0.4085
3355.00,0.4100
3354.00,0.4116
3353.00,0.4132
3352.00,0.4148
3351.00,0.4163
3350.00,0.4177
3349.00,0.4191
3348.00,0.4205
3347.00,0.4219
3346.00,0.4233
3345.00,0.4247
3344.00,0.4261
3343.00,0.4274
3342.00,0.4286
3341.00,0.4298
3340.00,0.4310
3339.00,0.4321
3338.00,0.4331
3337.00,0.4341
3336.00,0.4350
3335.00,0.4359
3334.00,0.4366
3333.00,0.4374
3332.00,0.4380
3331.00,0.4386
3330.00,0.4390
3329.00,0.4394
3328.00,0.4397
3327.00,0.4400
3326.00,0.4402
3325.00,0.4403
3324.00,0.4403
3323.00,0.4402
3322.00,0.4399
3321.00,0.4397
3320.00,0.4393
3319.00,0.4390
3318.00,0.4385
3317.00,0.4381
3316.00,0.4376
3315.00,0.4371
3314.00,0.4364
3313.00,0.4358
3312.00,0.4351
3311.00,0.4344
3310.00,0.4338
3309.00,0.4332
3308.00,0.4325
3307.00,0.4318
3306.00,0.4310
3305.00,0.4302
3304.00,0.4293
3303.00,0.4284
3302.00,0.4276
3301.00,0.4268
3300.00,0.4262
3299.00,0.4256
3298.00,0.4249
3297.00,0.4243
3296.00,0.4238
3295.00,0.4232
3294.00,0.4227
3293.00,0.4222
3292.00,0.4217
3291.00,0.4212
3290.00,0.4208
3289.00,0.4204
3288.00,0.4201
3287.00,0.4198
3286.00,0.4196
3285.00,0.4195
3284.00,0.4194
3283.00,0.4194
3282.00,0.4194
3281.00,0.4195
3280.00,0.4196
3279.00,0.4198
3278.00,0.4199
3277.00,0.4201
3276.00,0.4203
3275.00,0.4205
3274.00,0.4208
3273.00,0.4212
3272.00,0.4216
3271.00,0.4219
3270.00,0.4223
3269.00,0.4227
3268.00,0.4231
3267.00,0.4235
3266.00,0.4239
3265.00,0.4243
3264.00,0.4247
3263.00,0.4251
3262.00,0.4256
3261.00,0.4260
3260.00,0.4265
3259.00,0.4270
3258.00,0.4276
3257.00,0.4281
3256.00,0.4286
3255.00,0.4290
3254.00,0.4295
3253.00,0.4301
3252.00,0.4306
3251.00,0.4312
3250.00,0.4317
3249.00,0.4322
3248.00,0.4327
3247.00,0.4331
3246.00,0.4336
3245.00,0.4341
3244.00,0.4345
3243.00,0.4349
3242.00,0.4353
3241.00,0.4356
3240.00,0.4359
3239.00,0.4362
3238.00,0.4365
3237.00,0.4367
3236.00,0.4369
3235.00,0.4371
3234.00,0.4373
3233.00,0.4375
3232.00,0.4376
3231.00,0.4376
3230.00,0.4376
3229.00,0.4375
3228.00,0.4375
3227.00,0.4375
3226.00,0.4374
3225.00,0.4374
3224.00,0.4374
3223.00,0.4373
3222.00,0.4372
3221.00,0.4371
3220.00,0.4369
3219.00,0.4368
3218.00,0.4366
3217.00,0.4366
3216.00,0.4365
3215.00,0.4364
3214.00,0.4363
3213.00,0.4362
3212.00,0.4362
3211.00,0.4361
3210.00,0.4360
3209.00,0.4359
3208.00,0.4357
3207.00,0.4356
3206.00,0.4354
3205.00,0.4353
3204.00,0.4351
3203.00,0.4349
3202.00,0.4348
3201.00,0.4346
3200.00,0.4343
3199.00,0.4340
3198.00,0.4337
3197.00,0.4334
3196.00,0.4331
3195.00,0.4328
3194.00,0.4326
3193.00,0.4323
3192.00,0.4319
3191.00,0.4315
3190.00,0.4311
3189.00,0.4307
3188.00,0.4302
3187.00,0.4297
3186.00,0.4292
3185.00,0.4288
3184.00,0.4283
3183.00,0.4279
3182.00,0.4274
3181.00,0.4268
3180.00,0.4263
3179.00,0.4257
3178.00,0.4250
3177.00,0.4245
3176.00,0.4239
3175.00,0.4234
3174.00,0.4229
3173.00,0.4224
3172.00,0.4217
3171.00,0.4211
3170.00,0.4204
3169.00,0.4198
3168.00,0.4192
3167.00,0.4186
3166.00,0.4179
3165.00,0.4172
3164.00,0.4165
3163.00,0.4157
3162.00,0.4149
3161.00,0.4142
3160.00,0.4134
3159.00,0.4126
3158.00,0.4118
3157.00,0.4111
3156.00,0.4103
3155.00,0.4096
3154.00,0.4089
3153.00,0.4082
3152.00,0.4075
3151.00,0.4067
3150.00,0.4060
3149.00,0.4054
3148.00,0.4048
3147.00,0.4042
3146.00,0.4036
3145.00,0.4030
3144.00,0.4025
3143.00,0.4020
3142.00,0.4016
3141.00,0.4012
3140.00,0.4008
3139.00,0.4003
3138.00,0.3999
3137.00,0.3996
3136.00,0.3993
3135.00,0.3991
3134.00,0.3989
3133.00,0.3987
3132.00,0.3985
3131.00,0.3983
3130.00,0.3982
3129.00,0.3981
3128.00,0.3980
3127.00,0.3979
3126.00,0.3979
3125.00,0.3979
3124.00,0.3979
3123.00,0.3980
3122.00,0.3981
3121.00,0.3983
3120.00,0.3986
3119.00,0.3989
3118.00,0.3992
3117.00,0.3995
3116.00,0.3998
3115.00,0.4001
3114.00,0.4004
3113.00,0.4009
3112.00,0.4014
3111.00,0.4021
3110.00,0.4028
3109.00,0.4037
3108.00,0.4045
3107.00,0.4055
3106.00,0.4064
3105.00,0.4073
3104.00,0.4082
3103.00,0.4091
3102.00,0.4099
3101.00,0.4108
3100.00,0.4117
3099.00,0.4126
3098.00,0.4135
3097.00,0.4146
3096.00,0.4158
3095.00,0.4172
3094.00,0.4188
3093.00,0.4205
3092.00,0.4224
3091.00,0.4243
3090.00,0.4265
3089.00,0.4288
3088.00,0.4313
3087.00,0.4338
3086.00,0.4363
3085.00,0.4390
3084.00,0.4419
3083.00,0.4448
3082.00,0.4479
3081.00,0.4512
3080.00,0.4547
3079.00,0.4583
3078.00,0.4622
3077.00,0.4663
3076.00,0.4705
3075.00,0.4749
3074.00,0.4792
3073.00,0.4836
3072.00,0.4880
3071.00,0.4923
3070.00,0.4966
3069.00,0.5009
3068.00,0.5053
3067.00,0.5096
3066.00,0.5139
3065.00,0.5181
3064.00,0.5219
3063.00,0.5254
3062.00,0.5286
3061.00,0.5315
3060.00,0.5342
3059.00,0.5368
3058.00,0.5394
3057.00,0.5421
3056.00,0.5449
3055.00,0.5479
3054.00,0.5511
3053.00,0.5545
3052.00,0.5581
3051.00,0.5618
3050.00,0.5658
3049.00,0.5701
3048.00,0.5745
3047.00,0.5790
3046.00,0.5837
3045.00,0.5884
3044.00,0.5931
3043.00,0.5978
3042.00,0.6024
3041.00,0.6070
3040.00,0.6116
3039.00,0.6162
3038.00,0.6210
3037.00,0.6260
3036.00,0.6313
3035.00,0.6370
3034.00,0.6432
3033.00,0.6499
3032.00,0.6571
3031.00,0.6648
3030.00,0.6728
3029.00,0.6812
3028.00,0.6900
3027.00,0.6992
3026.00,0.7088
3025.00,0.7186
3024.00,0.7286
3023.00,0.7389
3022.00,0.7495
3021.00,0.7605
3020.00,0.7720
3019.00,0.7838
3018.00,0.7957
3017.00,0.8076
3016.00,0.8196
3015.00,0.8315
3014.00,0.8436
3013.00,0.8559
3012.00,0.8686
3011.00,0.8817
3010.00,0.8953
3009.00,0.9094
3008.00,0.9242
3007.00,0.9398
3006.00,0.9561
3005.00,0.9730
3004.00,0.9903
3003.00,1.0079
3002.00,1.0260
3001.00,1.0447
3000.00,1.0644
2999.00,1.0854
2998.00,1.1080
2997.00,1.1323
2996.00,1.1589
2995.00,1.1885
2994.00,1.2215
2993.00,1.2580
2992.00,1.2983
2991.00,1.3435
2990.00,1.3944
2989.00,1.4516
2988.00,1.5152
2987.00,1.5854
2986.00,1.6630
2985.00,1.7492
2984.00,1.8450
2983.00,1.9519
2982.00,2.0707
2981.00,2.2002
2980.00,2.3370
2979.00,2.4785
2978.00,2.6267
2977.00,2.7858
2976.00,2.9569
2975.00,3.1311
2974.00,3.2828
2973.00,3.3815
2972.00,3.4334
2971.00,3.4798
2970.00,3.5399
2969.00,3.5892
2968.00,3.6073
2967.00,3.6174
2966.00,3.6300
2965.00,3.6426
2964.00,3.6792
2963.00,3.7621
2962.00,3.8371
2961.00,3.8109
2960.00,3.7291
2959.00,3.6909
2958.00,3.7179
2957.00,3.7738
2956.00,3.8300
2955.00,3.8632
2954.00,3.8431
2953.00,3.7718
2952.00,3.7046
2951.00,3.6937
2950.00,3.7318
2949.00,3.7908
2948.00,3.8826
2947.00,4.0651
2946.00,4.3048
2945.00,4.2743
2944.00,4.0429
2943.00,3.9171
2942.00,3.9085
2941.00,3.9218
2940.00,3.9185
2939.00,3.9045
2938.00,3.8813
2937.00,3.8447
2936.00,3.9002
2935.00,4.1889
2934.00,4.3707
2933.00,3.9497
2932.00,3.6473
2931.00,3.5338
2930.00,3.5541
2929.00,3.6544
2928.00,3.8785
2927.00,4.1827
2926.00,4.0742
2925.00,3.8615
2924.00,3.7743
2923.00,3.8705
2922.00,4.0411
2921.00,4.1490
2920.00,4.2138
2919.00,4.1919
2918.00,4.0919
2917.00,3.9663
2916.00,3.9130
2915.00,3.9311
2914.00,3.9531
2913.00,3.9713
2912.00,4.0458
2911.00,4.2473
2910.00,4.4782
2909.00,4.3418
2908.00,4.0476
2907.00,3.8785
2906.00,3.8281
2905.00,3.8122
2904.00,3.7952
2903.00,3.8019
2902.00,3.8429
2901.00,3.8813
2900.00,3.9256
2899.00,4.0422
2898.00,4.0561
2897.00,3.8546
2896.00,3.6789
2895.00,3.6296
2894.00,3.6978
2893.00,3.8740
2892.00,4.1935
2891.00,4.6276
2890.00,4.5900
2889.00,4.0959
2888.00,3.8518
2887.00,3.7361
2886.00,3.6962
2885.00,3.6649
2884.00,3.6432
2883.00,3.6749
2882.00,3.7355
2881.00,3.7864
2880.00,3.8245
2879.00,3.8560
2878.00,3.8219
2877.00,3.7324
2876.00,3.6627
2875.00,3.6568
2874.00,3.6922
2873.00,3.7333
2872.00,3.7765
2871.00,3.7882
2870.00,3.7139
2869.00,3.5916
2868.00,3.5113
2867.00,3.5094
2866.00,3.5707
2865.00,3.6470
2864.00,3.6955
2863.00,3.7071
2862.00,3.6757
2861.00,3.6079
2860.00,3.5422
2859.00,3.5080
2858.00,3.5018
2857.00,3.5055
2856.00,3.5182
2855.00,3.5619
2854.00,3.6544
2853.00,3.7654
2852.00,3.8224
2851.00,3.8445
2850.00,3.9094
2849.00,4.0115
2848.00,4.0114
2847.00,3.8875
2846.00,3.7594
2845.00,3.6922
2844.00,3.7156
2843.00,3.8323
2842.00,3.9387
2841.00,3.8407
2840.00,3.6387
2839.00,3.4560
2838.00,3.2762
2837.00,3.0741
2836.00,2.8687
2835.00,2.6771
2834.00,2.4991
2833.00,2.3331
2832.00,2.1819
2831.00,2.0481
2830.00,1.9305
2829.00,1.8261
2828.00,1.7327
2827.00,1.6490
2826.00,1.5737
2825.00,1.5053
2824.00,1.4427
2823.00,1.3854
2822.00,1.3327
2821.00,1.2844
2820.00,1.2398
2819.00,1.1988
2818.00,1.1607
2817.00,1.1252
2816.00,1.0922
2815.00,1.0615
2814.00,1.0330
2813.00,1.0062
2812.00,0.9808
2811.00,0.9569
2810.00,0.9343
2809.00,0.9129
2808.00,0.8925
2807.00,0.8730
2806.00,0.8544
2805.00,0.8367
2804.00,0.8199
2803.00,0.8039
2802.00,0.7888
2801.00,0.7745
2800.00,0.7610
2799.00,0.7480
2798.00,0.7356
2797.00,0.7236
2796.00,0.7120
2795.00,0.7007
2794.00,0.6899
2793.00,0.6794
2792.00,0.6693
2791.00,0.6595
2790.00,0.6500
2789.00,0.6406
2788.00,0.6313
2787.00,0.6222
2786.00,0.6133
2785.00,0.6047
2784.00,0.5963
2783.00,0.5882
2782.00,0.5804
2781.00,0.5729
2780.00,0.5657
2779.00,0.5588
2778.00,0.5521
2777.00,0.5458
2776.00,0.5398
2775.00,0.5342
2774.00,0.5289
2773.00,0.5239
2772.00,0.5193
2771.00,0.5150
2770.00,0.5110
2769.00,0.5074
2768.00,0.5042
2767.00,0.5013
2766.00,0.4987
2765.00,0.4964
2764.00,0.4944
2763.00,0.4926
2762.00,0.4911
2761.00,0.4899
2760.00,0.4887
2759.00,0.4875
2758.00,0.4863
2757.00,0.4852
2756.00,0.4841
2755.00,0.4831
2754.00,0.4823
2753.00,0.4816
2752.00,0.4811
2751.00,0.4808
2750.00,0.4807
2749.00,0.4807
2748.00,0.4810
2747.00,0.4815
2746.00,0.4822
2745.00,0.4832
2744.00,0.4844
2743.00,0.4859
2742.00,0.4878
2741.00,0.4901
2740.00,0.4929
2739.00,0.4961
2738.00,0.4998
2737.00,0.5041
2736.00,0.5087
2735.00,0.5138
2734.00,0.5190
2733.00,0.5242
2732.00,0.5289
2731.00,0.5329
2730.00,0.5360
2729.00,0.5380
2728.00,0.5389
2727.00,0.5389
2726.00,0.5381
2725.00,0.5367
2724.00,0.5348
2723.00,0.5326
2722.00,0.5301
2721.00,0.5271
2720.00,0.5238
2719.00,0.5202
2718.00,0.5164
2717.00,0.5123
2716.00,0.5079
2715.00,0.5035
2714.00,0.4990
2713.00,0.4947
2712.00,0.4905
2711.00,0.4866
2710.00,0.4831
2709.00,0.4801
2708.00,0.4775
2707.00,0.4753
2706.00,0.4735
2705.00,0.4721
2704.00,0.4710
2703.00,0.4701
2702.00,0.4695
2701.00,0.4692
2700.00,0.4690
2699.00,0.4691
2698.00,0.4694
2697.00,0.4698
2696.00,0.4703
2695.00,0.4709
2694.00,0.4716
2693.00,0.4724
2692.00,0.4734
2691.00,0.4745
2690.00,0.4755
2689.00,0.4764
2688.00,0.4772
2687.00,0.4779
2686.00,0.4785
2685.00,0.4791
2684.00,0.4796
2683.00,0.4801
2682.00,0.4805
2681.00,0.4807
2680.00,0.4810
2679.00,0.4812
2678.00,0.4815
2677.00,0.4819
2676.00,0.4824
2675.00,0.4828
2674.00,0.4832
2673.00,0.4835
2672.00,0.4837
2671.00,0.4836
2670.00,0.4833
