Created as New Dataset,
cm-1,A
4000.00,0.3638
3999.00,0.3634
3998.00,0.3631
3997.00,0.3627
3996.00,0.3623
3995.00,0.3618
3994.00,0.3615
3993.00,0.3611
3992.00,0.3608
3991.00,0.3604
3990.00,0.3600
3989.00,0.3596
3988.00,0.3592
3987.00,0.3588
3986.00,0.3584
3985.00,0.3581
3984.00,0.3577
3983.00,0.3573
3982.00,0.3569
3981.00,0.3566
3980.00,0.3563
3979.00,0.3561
3978.00,0.3559
3977.00,0.3556
3976.00,0.3554
3975.00,0.3551
3974.00,0.3548
3973.00,0.3546
3972.00,0.3544
3971.00,0.3543
3970.00,0.3541
3969.00,0.3539
3968.00,0.3538
3967.00,0.3536
3966.00,0.3534
3965.00,0.3533
3964.00,0.3531
3963.00,0.3529
3962.00,0.3528
3961.00,0.3526
3960.00,0.3524
3959.00,0.3521
3958.00,0.3520
3957.00,0.3518
3956.00,0.3517
3955.00,0.3514
3954.00,0.3512
3953.00,0.3509
3952.00,0.3507
3951.00,0.3505
3950.00,0.3504
3949.00,0.3502
3948.00,0.3501
3947.00,0.3500
3946.00,0.3499
3945.00,0.3498
3944.00,0.3496
3943.00,0.3494
3942.00,0.3493
3941.00,0.3492
3940.00,0.3491
3939.00,0.3490
3938.00,0.3490
3937.00,0.3490
3936.00,0.3490
3935.00,0.3490
3934.00,0.3490
3933.00,0.3490
3932.00,0.3490
3931.00,0.3490
3930.00,0.3490
3929.00,0.3490
3928.00,0.3489
3927.00,0.3489
3926.00,0.3490
3925.00,0.3490
3924.00,0.3490
3923.00,0.3490
3922.00,0.3489
3921.00,0.3489
3920.00,0.3488
3919.00,0.3488
3918.00,0.3487
3917.00,0.3486
3916.00,0.3484
3915.00,0.3483
3914.00,0.3481
3913.00,0.3479
3912.00,0.3478
3911.00,0.3477
3910.00,0.3477
3909.00,0.3477
3908.00,0.3478
3907.00,0.3479
3906.00,0.3480
3905.00,0.3481
3904.00,0.3481
3903.00,0.3481
3902.00,0.3481
3901.00,0.3482
3900.00,0.3483
3899.00,0.3483
3898.00,0.3482
3897.00,0.3481
3896.00,0.3479
3895.00,0.3478
3894.00,0.3477
3893.00,0.3476
3892.00,0.3474
3891.00,0.3473
3890.00,0.3472
3889.00,0.3472
3888.00,0.3472
3887.00,0.3472
3886.00,0.3472
3885.00,0.3472
3884.00,0.3471
3883.00,0.3471
3882.00,0.3470
3881.00,0.3469
3880.00,0.3467
3879.00,0.3465
3878.00,0.3463
3877.00,0.3463
3876.00,0.3463
3875.00,0.3463
3874.00,0.3461
3873.00,0.3458
3872.00,0.3456
3871.00,0.3455
3870.00,0.3454
3869.00,0.3454
3868.00,0.3454
3867.00,0.3454
3866.00,0.3454
3865.00,0.3453
3864.00,0.3451
3863.00,0.3449
3862.00,0.3446
3861.00,0.3444
3860.00,0.3443
3859.00,0.3444
3858.00,0.3445
3857.00,0.3446
3856.00,0.3446
3855.00,0.3447
3854.00,0.3447
3853.00,0.3448
3852.00,0.3449
3851.00,0.3450
3850.00,0.3449
3849.00,0.3446
3848.00,0.3443
3847.00,0.3440
3846.00,0.3438
3845.00,0.3436
3844.00,0.3434
3843.00,0.3434
3842.00,0.3434
3841.00,0.3435
3840.00,0.3436
3839.00,0.3436
3838.00,0.3435
3837.00,0.3434
3836.00,0.3434
3835.00,0.3433
3834.00,0.3432
3833.00,0.3430
3832.00,0.3428
3831.00,0.3426
3830.00,0.3424
3829.00,0.3422
3828.00,0.3421
3827.00,0.3420
3826.00,0.3419
3825.00,0.3418
3824.00,0.3418
3823.00,0.3418
3822.00,0.3419
3821.00,0.3420
3820.00,0.3419
3819.00,0.3418
3818.00,0.3417
3817.00,0.3415
3816.00,0.3414
3815.00,0.3411
3814.00,0.3408
3813.00,0.3405
3812.00,0.3402
3811.00,0.3399
3810.00,0.3397
3809.00,0.3395
3808.00,0.3392
3807.00,0.3390
3806.00,0.3389
3805.00,0.3387
3804.00,0.3386
3803.00,0.3384
3802.00,0.3383
3801.00,0.3383
3800.00,0.3382
3799.00,0.3380
3798.00,0.3379
3797.00,0.3377
3796.00,0.3374
3795.00,0.3371
3794.00,0.3368
3793.00,0.3365
3792.00,0.3363
3791.00,0.3361
3790.00,0.3358
3789.00,0.3356
3788.00,0.3354
3787.00,0.3353
3786.00,0.3352
3785.00,0.3351
3784.00,0.3350
3783.00,0.3349
3782.00,0.3348
3781.00,0.3347
3780.00,0.3345
3779.00,0.3344
3778.00,0.3342
3777.00,0.3341
3776.00,0.3341
3775.00,0.3339
3774.00,0.3337
3773.00,0.3335
3772.00,0.3333
3771.00,0.3331
3770.00,0.3330
3769.00,0.3329
3768.00,0.3327
3767.00,0.3326
3766.00,0.3325
3765.00,0.3323
3764.00,0.3322
3763.00,0.3320
3762.00,0.3319
3761.00,0.3317
3760.00,0.3315
3759.00,0.3313
3758.00,0.3311
3757.00,0.3310
3756.00,0.3309
3755.00,0.3308
3754.00,0.3308
3753.00,0.3308
3752.00,0.3309
3751.00,0.3309
3750.00,0.3310
3749.00,0.3311
3748.00,0.3312
3747.00,0.3312
3746.00,0.3312
3745.00,0.3311
3744.00,0.3309
3743.00,0.3306
3742.00,0.3304
3741.00,0.3302
3740.00,0.3300
3739.00,0.3298
3738.00,0.3296
3737.00,0.3294
3736.00,0.3293
3735.00,0.3292
3734.00,0.3291
3733.00,0.3290
3732.00,0.3288
3731.00,0.3286
3730.00,0.3283
3729.00,0.3280
3728.00,0.3277
3727.00,0.3275
3726.00,0.3272
3725.00,0.3270
3724.00,0.3268
3723.00,0.3266
3722.00,0.3264
3721.00,0.3262
3720.00,0.3261
3719.00,0.3259
3718.00,0.3258
3717.00,0.3256
3716.00,0.3255
3715.00,0.3254
3714.00,0.3254
3713.00,0.3255
3712.00,0.3256
3711.00,0.3257
3710.00,0.3258
3709.00,0.3257
3708.00,0.3257
3707.00,0.3255
3706.00,0.3254
3705.00,0.3253
3704.00,0.3252
3703.00,0.3251
3702.00,0.3249
3701.00,0.3248
3700.00,0.3247
3699.00,0.3246
3698.00,0.3246
3697.00,0.3246
3696.00,0.3246
3695.00,0.3246
3694.00,0.3245
3693.00,0.3246
3692.00,0.3247
3691.00,0.3248
3690.00,0.3250
3689.00,0.3252
3688.00,0.3253
3687.00,0.3252
3686.00,0.3250
3685.00,0.3248
3684.00,0.3246
3683.00,0.3244
3682.00,0.3243
3681.00,0.3241
3680.00,0.3240
3679.00,0.3240
3678.00,0.3241
3677.00,0.3243
3676.00,0.3246
3675.00,0.3248
3674.00,0.3248
3673.00,0.3248
3672.00,0.3248
3671.00,0.3248
3670.00,0.3247
3669.00,0.3245
3668.00,0.3243
3667.00,0.3241
3666.00,0.3239
3665.00,0.3237
3664.00,0.3235
3663.00,0.3234
3662.00,0.3233
3661.00,0.3233
3660.00,0.3234
3659.00,0.3235
3658.00,0.3236
3657.00,0.3238
3656.00,0.3240
3655.00,0.3242
3654.00,0.3245
3653.00,0.3248
3652.00,0.3251
3651.00,0.3254
3650.00,0.3257
3649.00,0.3260
3648.00,0.3263
3647.00,0.3265
3646.00,0.3266
3645.00,0.3266
3644.00,0.3265
3643.00,0.3265
3642.00,0.3265
3641.00,0.3265
3640.00,0.3266
3639.00,0.3268
3638.00,0.3269
3637.00,0.3270
3636.00,0.3272
3635.00,0.3275
3634.00,0.3279
3633.00,0.3283
3632.00,0.3288
3631.00,0.3294
3630.00,0.3302
3629.00,0.3310
3628.00,0.3319
3627.00,0.3327
3626.00,0.3333
3625.00,0.3337
3624.00,0.3340
3623.00,0.3340
3622.00,0.3339
3621.00,0.3335
3620.00,0.3330
3619.00,0.3323
3618.00,0.3317
3617.00,0.3311
3616.00,0.3307
3615.00,0.3303
3614.00,0.3301
3613.00,0.3299
3612.00,0.3297
3611.00,0.3296
3610.00,0.3296
3609.00,0.3295
3608.00,0.3295
3607.00,0.3295
3606.00,0.3295
3605.00,0.3294
3604.00,0.3292
3603.00,0.3291
3602.00,0.3288
3601.00,0.3285
3600.00,0.3280
3599.00,0.3275
3598.00,0.3269
3597.00,0.3263
3596.00,0.3258
3595.00,0.3252
3594.00,0.3247
3593.00,0.3242
3592.00,0.3238
3591.00,0.3234
3590.00,0.3230
3589.00,0.3227
3588.00,0.3224
3587.00,0.3222
3586.00,0.3220
3585.00,0.3218
3584.00,0.3217
3583.00,0.3215
3582.00,0.3214
3581.00,0.3213
3580.00,0.3212
3579.00,0.3211
3578.00,0.3211
3577.00,0.3210
3576.00,0.3210
3575.00,0.3210
3574.00,0.3211
3573.00,0.3212
3572.00,0.3213
3571.00,0.3215
3570.00,0.3217
3569.00,0.3219
3568.00,0.3221
3567.00,0.3223
3566.00,0.3224
3565.00,0.3225
3564.00,0.3226
3563.00,0.3228
3562.00,0.3229
3561.00,0.3230
3560.00,0.3231
3559.00,0.3232
3558.00,0.3233
3557.00,0.3235
3556.00,0.3237
3555.00,0.3240
3554.00,0.3242
3553.00,0.3245
3552.00,0.3248
3551.00,0.3251
3550.00,0.3254
3549.00,0.3258
3548.00,0.3262
3547.00,0.3266
3546.00,0.3269
3545.00,0.3273
3544.00,0.3277
3543.00,0.3281
3542.00,0.3285
3541.00,0.3289
3540.00,0.3292
3539.00,0.3296
3538.00,0.3300
3537.00,0.3303
3536.00,0.3306
3535.00,0.3309
3534.00,0.3312
3533.00,0.3315
3532.00,0.3319
3531.00,0.3322
3530.00,0.3326
3529.00,0.3330
3528.00,0.3333
3527.00,0.3336
3526.00,0.3339
3525.00,0.3342
3524.00,0.3345
3523.00,0.3348
3522.00,0.3350
3521.00,0.3352
3520.00,0.3354
3519.00,0.3357
3518.00,0.3361
3517.00,0.3365
3516.00,0.3369
3515.00,0.3373
3514.00,0.3378
3513.00,0.3383
3512.00,0.3388
3511.00,0.3393
3510.00,0.3399
3509.00,0.3404
3508.00,0.3410
3507.00,0.3415
3506.00,0.3421
3505.00,0.3427
3504.00,0.3432
3503.00,0.3437
3502.00,0.3443
3501.00,0.3449
3500.00,0.3455
3499.00,0.3460
3498.00,0.3466
3497.00,0.3471
3496.00,0.3478
3495.00,0.3484
3494.00,0.3490
3493.00,0.3497
3492.00,0.3503
3491.00,0.3510
3490.00,0.3517
3489.00,0.3525
3488.00,0.3533
3487.00,0.3540
3486.00,0.3547
3485.00,0.3553
3484.00,0.3559
3483.00,0.3564
3482.00,0.3570
3481.00,0.3575
3480.00,0.3581
3479.00,0.3587
3478.00,0.3592
3477.00,0.3597
3476.00,0.3602
3475.00,0.3607
3474.00,0.3612
3473.00,0.3618
3472.00,0.3624
3471.00,0.3631
3470.00,0.3637
3469.00,0.3644
3468.00,0.3650
3467.00,0.3656
3466.00,0.3662
3465.00,0.3668
3464.00,0.3675
3463.00,0.3682
3462.00,0.3689
3461.00,0.3696
3460.00,0.3703
3459.00,0.3709
3458.00,0.3716
3457.00,0.3723
3456.00,0.3730
3455.00,0.3737
3454.00,0.3745
3453.00,0.3752
3452.00,0.3760
3451.00,0.3768
3450.00,0.3775
3449.00,0.3782
3448.00,0.3790
3447.00,0.3798
3446.00,0.3805
3445.00,0.3813
3444.00,0.3821
3443.00,0.3828
3442.00,0.3837
3441.00,0.3845
3440.00,0.3854
3439.00,0.3863
3438.00,0.3871
3437.00,0.3878
3436.00,0.3885
3435.00,0.3893
3434.00,0.3902
3433.00,0.3911
3432.00,0.3919
3431.00,0.3928
3430.00,0.3936
3429.00,0.3945
3428.00,0.3954
3427.00,0.3963
3426.00,0.3972
3425.00,0.3981
3424.00,0.3991
3423.00,0.4001
3422.00,0.4011
3421.00,0.4020
3420.00,0.4030
3419.00,0.4039
3418.00,0.4049
3417.00,0.4058
3416.00,0.4067
3415.00,0.4077
3414.00,0.4086
3413.00,0.4096
3412.00,0.4106
3411.00,0.4116
3410.00,0.4127
3409.00,0.4137
3408.00,0.4148
3407.00,0.4158
3406.00,0.4168
3405.00,0.4179
3404.00,0.4189
3403.00,0.4199
3402.00,0.4210
3401.00,0.4220
3400.00,0.4230
3399.00,0.4241
3398.00,0.4252
3397.00,0.4263
3396.00,0.4273
3395.00,0.4283
3394.00,0.4293
3393.00,0.4304
3392.00,0.4314
3391.00,0.4325
3390.00,0.4335
3389.00,0.4344
3388.00,0.4354
3387.00,0.4363
3386.00,0.4374
3385.00,0.4386
3384.00,0.4398
3383.00,0.4410
3382.00,0.4421
3381.00,0.4431
3380.00,0.4441
3379.00,0.4451
3378.00,0.4461
3377.00,0.4472
3376.00,0.4483
3375.00,0.4494
3374.00,0.4506
3373.00,0.4518
3372.00,0.4530
3371.00,0.4542
3370.00,0.4553
3369.00,0.4565
3368.00,0.4577
3367.00,0.4589
3366.00,0.4603
3365.00,0.4617
3364.00,0.4632
3363.00,0.4646
3362.00,0.4660
3361.00,0.4674
3360.00,0.4689
3359.00,0.4704
3358.00,0.4718
3357.00,0.4733
3356.00,0.4748
3355.00,0.4762
3354.00,0.4777
3353.00,0.4791
3352.00,0.4805
3351.00,0.4818
3350.00,0.4832
3349.00,0.4845
3348.00,0.4859
3347.00,0.4873
3346.00,0.4887
3345.00,0.4900
3344.00,0.4913
3343.00,0.4925
3342.00,0.4937
3341.00,0.4949
3340.00,0.4959
3339.00,0.4970
3338.00,0.4980
3337.00,0.4989
3336.00,0.4997
3335.00,0.5004
3334.00,0.5011
3333.00,0.5016
3332.00,0.5021
3331.00,0.5026
3330.00,0.5030
3329.00,0.5033
3328.00,0.5035
3327.00,0.5037
3326.00,0.5038
3325.00,0.5039
3324.00,0.5038
3323.00,0.5037
3322.00,0.5034
3321.00,0.5032
3320.00,0.5028
3319.00,0.5025
3318.00,0.5020
3317.00,0.5015
3316.00,0.5010
3315.00,0.5004
3314.00,0.4998
3313.00,0.4991
3312.00,0.4985
3311.00,0.4979
3310.00,0.4972
3309.00,0.4964
3308.00,0.4956
3307.00,0.4948
3306.00,0.4940
3305.00,0.4933
3304.00,0.4926
3303.00,0.4920
3302.00,0.4913
3301.00,0.4906
3300.00,0.4899
3299.00,0.4892
3298.00,0.4886
3297.00,0.4880
3296.00,0.4875
3295.00,0.4870
3294.00,0.4867
3293.00,0.4863
3292.00,0.4860
3291.00,0.4856
3290.00,0.4853
3289.00,0.4850
3288.00,0.4848
3287.00,0.4847
3286.00,0.4847
3285.00,0.4847
3284.00,0.4847
3283.00,0.4847
3282.00,0.4847
3281.00,0.4846
3280.00,0.4846
3279.00,0.4847
3278.00,0.4849
3277.00,0.4851
3276.00,0.4854
3275.00,0.4857
3274.00,0.4861
3273.00,0.4865
3272.00,0.4869
3271.00,0.4873
3270.00,0.4876
3269.00,0.4879
3268.00,0.4882
3267.00,0.4886
3266.00,0.4890
3265.00,0.4894
3264.00,0.4897
3263.00,0.4902
3262.00,0.4907
3261.00,0.4911
3260.00,0.4916
3259.00,0.4920
3258.00,0.4925
3257.00,0.4929
3256.00,0.4934
3255.00,0.4938
3254.00,0.4942
3253.00,0.4947
3252.00,0.4951
3251.00,0.4956
3250.00,0.4960
3249.00,0.4963
3248.00,0.4966
3247.00,0.4969
3246.00,0.4972
3245.00,0.4975
3244.00,0.4978
3243.00,0.4980
3242.00,0.4982
3241.00,0.4984
3240.00,0.4986
3239.00,0.4988
3238.00,0.4989
3237.00,0.4990
3236.00,0.4990
3235.00,0.4990
3234.00,0.4990
3233.00,0.4990
3232.00,0.4989
3231.00,0.4988
3230.00,0.4986
3229.00,0.4984
3228.00,0.4983
3227.00,0.4982
3226.00,0.4981
3225.00,0.4979
3224.00,0.4978
3223.00,0.4976
3222.00,0.4974
3221.00,0.4971
3220.00,0.4967
3219.00,0.4964
3218.00,0.4960
3217.00,0.4958
3216.00,0.4955
3215.00,0.4953
3214.00,0.4951
3213.00,0.4948
3212.00,0.4946
3211.00,0.4944
3210.00,0.4941
3209.00,0.4938
3208.00,0.4935
3207.00,0.4932
3206.00,0.4929
3205.00,0.4926
3204.00,0.4923
3203.00,0.4920
3202.00,0.4917
3201.00,0.4914
3200.00,0.4912
3199.00,0.4908
3198.00,0.4904
3197.00,0.4900
3196.00,0.4896
3195.00,0.4891
3194.00,0.4887
3193.00,0.4883
3192.00,0.4879
3191.00,0.4874
3190.00,0.4868
3189.00,0.4863
3188.00,0.4857
3187.00,0.4851
3186.00,0.4845
3185.00,0.4840
3184.00,0.4834
3183.00,0.4829
3182.00,0.4823
3181.00,0.4816
3180.00,0.4809
3179.00,0.4802
3178.00,0.4794
3177.00,0.4787
3176.00,0.4781
3175.00,0.4774
3174.00,0.4768
3173.00,0.4761
3172.00,0.4753
3171.00,0.4745
3170.00,0.4738
3169.00,0.4731
3168.00,0.4724
3167.00,0.4717
3166.00,0.4708
3165.00,0.4700
3164.00,0.4691
3163.00,0.4684
3162.00,0.4676
3161.00,0.4669
3160.00,0.4660
3159.00,0.4652
3158.00,0.4643
3157.00,0.4634
3156.00,0.4625
3155.00,0.4617
3154.00,0.4609
3153.00,0.4601
3152.00,0.4594
3151.00,0.4587
3150.00,0.4580
3149.00,0.4573
3148.00,0.4566
3147.00,0.4560
3146.00,0.4553
3145.00,0.4548
3144.00,0.4542
3143.00,0.4537
3142.00,0.4532
3141.00,0.4527
3140.00,0.4522
3139.00,0.4517
3138.00,0.4513
3137.00,0.4509
3136.00,0.4505
3135.00,0.4502
3134.00,0.4499
3133.00,0.4497
3132.00,0.4493
3131.00,0.4490
3130.00,0.4488
3129.00,0.4486
3128.00,0.4485
3127.00,0.4485
3126.00,0.4484
3125.00,0.4484
3124.00,0.4484
3123.00,0.4485
3122.00,0.4485
3121.00,0.4486
3120.00,0.4488
3119.00,0.4489
3118.00,0.4491
3117.00,0.4493
3116.00,0.4497
3115.00,0.4502
3114.00,0.4507
3113.00,0.4513
3112.00,0.4520
3111.00,0.4527
3110.00,0.4534
3109.00,0.4541
3108.00,0.4549
3107.00,0.4557
3106.00,0.4565
3105.00,0.4573
3104.00,0.4581
3103.00,0.4589
3102.00,0.4597
3101.00,0.4606
3100.00,0.4614
3099.00,0.4624
3098.00,0.4634
3097.00,0.4645
3096.00,0.4658
3095.00,0.4671
3094.00,0.4685
3093.00,0.4701
3092.00,0.4719
3091.00,0.4738
3090.00,0.4760
3089.00,0.4783
3088.00,0.4808
3087.00,0.4834
3086.00,0.4861
3085.00,0.4888
3084.00,0.4917
3083.00,0.4946
3082.00,0.4978
3081.00,0.5012
3080.00,0.5048
3079.00,0.5087
3078.00,0.5127
3077.00,0.5168
3076.00,0.5209
3075.00,0.5251
3074.00,0.5293
3073.00,0.5337
3072.00,0.5381
3071.00,0.5424
3070.00,0.5467
3069.00,0.5510
3068.00,0.5553
3067.00,0.5597
3066.00,0.5639
3065.00,0.5680
3064.00,0.5719
3063.00,0.5755
3062.00,0.5788
3061.00,0.5819
3060.00,0.5847
3059.00,0.5874
3058.00,0.5900
3057.00,0.5927
3056.00,0.5956
3055.00,0.5986
3054.00,0.6019
3053.00,0.6054
3052.00,0.6090
3051.00,0.6129
3050.00,0.6170
3049.00,0.6212
3048.00,0.6256
3047.00,0.6301
3046.00,0.6347
3045.00,0.6394
3044.00,0.6441
3043.00,0.6488
3042.00,0.6534
3041.00,0.6580
3040.00,0.6626
3039.00,0.6672
3038.00,0.6720
3037.00,0.6771
3036.00,0.6825
3035.00,0.6883
3034.00,0.6946
3033.00,0.7013
3032.00,0.7084
3031.00,0.7160
3030.00,0.7241
3029.00,0.7327
3028.00,0.7417
3027.00,0.7509
3026.00,0.7604
3025.00,0.7702
3024.00,0.7804
3023.00,0.7908
3022.00,0.8017
3021.00,0.8129
3020.00,0.8243
3019.00,0.8359
3018.00,0.8477
3017.00,0.8596
3016.00,0.8716
3015.00,0.8837
3014.00,0.8959
3013.00,0.9084
3012.00,0.9212
3011.00,0.9346
3010.00,0.9486
3009.00,0.9632
3008.00,0.9785
3007.00,0.9943
3006.00,1.0106
3005.00,1.0276
3004.00,1.0451
3003.00,1.0631
3002.00,1.0818
3001.00,1.1011
3000.00,1.1212
2999.00,1.1424
2998.00,1.1653
2997.00,1.1904
2996.00,1.2179
2995.00,1.2481
2994.00,1.2814
2993.00,1.3181
2992.00,1.3589
2991.00,1.4049
2990.00,1.4570
2989.00,1.5158
2988.00,1.5811
2987.00,1.6533
2986.00,1.7332
2985.00,1.8222
2984.00,1.9208
2983.00,2.0291
2982.00,2.1468
2981.00,2.2746
2980.00,2.4150
2979.00,2.5718
2978.00,2.7484
2977.00,2.9415
2976.00,3.1374
2975.00,3.3168
2974.00,3.4762
2973.00,3.6124
2972.00,3.7217
2971.00,3.8025
2970.00,3.9714
2969.00,4.2561
2968.00,4.1130
2967.00,3.9085
2966.00,3.8691
2965.00,4.0025
2964.00,3.9597
2963.00,3.8413
2962.00,3.8335
2961.00,3.9087
2960.00,3.9499
2959.00,3.9635
2958.00,4.0141
2957.00,4.0344
2956.00,4.0047
2955.00,3.9072
2954.00,3.8042
2953.00,3.7560
2952.00,3.7932
2951.00,3.8711
2950.00,3.9630
2949.00,4.1632
2948.00,4.2905
2947.00,4.1459
2946.00,4.0987
2945.00,4.2527
2944.00,4.2820
2943.00,4.0324
2942.00,3.8878
2941.00,3.9711
2940.00,4.1410
2939.00,4.2923
2938.00,4.4869
2937.00,4.6339
2936.00,4.8196
2935.00,4.7778
2934.00,4.6515
2933.00,4.2826
2932.00,3.9636
2931.00,3.8327
2930.00,3.8700
2929.00,3.9718
2928.00,4.0106
2927.00,4.1140
2926.00,4.1674
2925.00,3.9457
2924.00,3.7524
2923.00,3.6863
2922.00,3.7319
2921.00,3.7882
2920.00,3.8991
2919.00,4.0843
2918.00,4.0778
2917.00,3.9582
2916.00,3.9149
2915.00,4.0396
2914.00,4.3018
2913.00,4.4444
2912.00,4.3053
2911.00,4.0766
2910.00,3.9196
2909.00,3.8368
2908.00,3.7970
2907.00,3.7903
2906.00,3.7873
2905.00,3.7850
2904.00,3.7942
2903.00,3.8185
2902.00,3.8798
2901.00,4.0424
2900.00,4.4043
2899.00,4.5853
2898.00,4.2357
2897.00,4.0384
2896.00,4.1223
2895.00,4.2283
2894.00,4.0584
2893.00,3.9336
2892.00,3.9900
2891.00,4.3163
2890.00,4.4962
2889.00,4.4470
2888.00,4.5072
2887.00,4.3081
2886.00,4.0649
2885.00,3.8584
2884.00,3.8284
2883.00,3.9087
2882.00,3.9569
2881.00,3.9374
2880.00,3.9059
2879.00,3.9551
2878.00,4.0292
2877.00,4.0273
2876.00,4.0733
2875.00,4.2737
2874.00,4.6934
2873.00,5.3793
2872.00,4.9521
2871.00,4.5922
2870.00,4.5003
2869.00,4.6745
2868.00,4.6512
2867.00,4.2229
2866.00,3.9939
2865.00,4.0208
2864.00,4.2091
2863.00,4.0636
2862.00,3.8074
2861.00,3.6682
2860.00,3.6744
2859.00,3.7194
2858.00,3.6974
2857.00,3.6711
2856.00,3.7530
2855.00,4.0148
2854.00,4.2321
2853.00,4.2064
2852.00,4.1709
2851.00,4.2577
2850.00,4.3222
2849.00,4.2585
2848.00,4.1127
2847.00,3.9471
2846.00,3.8611
2845.00,3.8515
2844.00,3.8750
2843.00,3.9023
2842.00,3.9408
2841.00,3.9742
2840.00,3.9578
2839.00,3.8545
2838.00,3.6153
2837.00,3.3067
2836.00,3.0221
2835.00,2.7871
2834.00,2.5914
2833.00,2.4222
2832.00,2.2728
2831.00,2.1393
2830.00,2.0190
2829.00,1.9105
2828.00,1.8131
2827.00,1.7258
2826.00,1.6470
2825.00,1.5754
2824.00,1.5106
2823.00,1.4522
2822.00,1.3993
2821.00,1.3508
2820.00,1.3062
2819.00,1.2650
2818.00,1.2265
2817.00,1.1904
2816.00,1.1565
2815.00,1.1250
2814.00,1.0958
2813.00,1.0686
2812.00,1.0431
2811.00,1.0189
2810.00,0.9957
2809.00,0.9736
2808.00,0.9526
2807.00,0.9328
2806.00,0.9141
2805.00,0.8964
2804.00,0.8796
2803.00,0.8635
2802.00,0.8482
2801.00,0.8335
2800.00,0.8194
2799.00,0.8060
2798.00,0.7931
2797.00,0.7809
2796.00,0.7691
2795.00,0.7578
2794.00,0.7468
2793.00,0.7362
2792.00,0.7259
2791.00,0.7158
2790.00,0.7061
2789.00,0.6965
2788.00,0.6872
2787.00,0.6780
2786.00,0.6690
2785.00,0.6603
2784.00,0.6518
2783.00,0.6436
2782.00,0.6357
2781.00,0.6282
2780.00,0.6209
2779.00,0.6139
2778.00,0.6071
2777.00,0.6007
2776.00,0.5945
2775.00,0.5887
2774.00,0.5833
2773.00,0.5783
2772.00,0.5737
2771.00,0.5694
2770.00,0.5654
2769.00,0.5617
2768.00,0.5584
2767.00,0.5554
2766.00,0.5528
2765.00,0.5506
2764.00,0.5487
2763.00,0.5470
2762.00,0.5456
2761.00,0.5443
2760.00,0.5432
2759.00,0.5421
2758.00,0.5409
2757.00,0.5397
2756.00,0.5385
2755.00,0.5373
2754.00,0.5363
2753.00,0.5354
2752.00,0.5348
2751.00,0.5345
2750.00,0.5343
2749.00,0.5344
2748.00,0.5346
2747.00,0.5351
2746.00,0.5358
2745.00,0.5369
2744.00,0.5382
2743.00,0.5399
2742.00,0.5419
2741.00,0.5443
2740.00,0.5471
2739.00,0.5504
2738.00,0.5542
2737.00,0.5586
2736.00,0.5634
2735.00,0.5686
2734.00,0.5738
2733.00,0.5790
2732.00,0.5839
2731.00,0.5879
2730.00,0.5910
2729.00,0.5930
2728.00,0.5938
2727.00,0.5936
2726.00,0.5926
2725.00,0.5910
2724.00,0.5889
2723.00,0.5865
2722.00,0.5838
2721.00,0.5808
2720.00,0.5776
2719.00,0.5740
2718.00,0.5701
2717.00,0.5660
2716.00,0.5616
2715.00,0.5570
2714.00,0.5524
2713.00,0.5480
2712.00,0.5438
2711.00,0.5400
2710.00,0.5367
2709.00,0.5338
2708.00,0.5312
2707.00,0.5291
2706.00,0.5273
2705.00,0.5258
2704.00,0.5247
2703.00,0.5238
2702.00,0.5232
2701.00,0.5229
2700.00,0.5227
2699.00,0.5227
2698.00,0.5229
2697.00,0.5232
2696.00,0.5236
2695.00,0.5242
2694.00,0.5248
2693.00,0.5255
2692.00,0.5263
2691.00,0.5272
2690.00,0.5280
2689.00,0.5289
2688.00,0.5297
2687.00,0.5304
2686.00,0.5310
2685.00,0.5316
2684.00,0.5320
2683.00,0.5323
2682.00,0.5326
2681.00,0.5330
2680.00,0.5333
2679.00,0.5337
2678.00,0.5341
2677.00,0.5345
2676.00,0.5350
2675.00,0.5355
2674.00,0.5359
2673.00,0.5363
2672.00,0.5365
2671.00,0.5365
2670.00,0.5363
