Created as New Dataset,
cm-1,A
4000.00,0.3640
3999.00,0.3636
3998.00,0.3632
3997.00,0.3628
3996.00,0.3624
3995.00,0.3620
3994.00,0.3616
3993.00,0.3612
3992.00,0.3608
3991.00,0.3604
3990.00,0.3600
3989.00,0.3597
3988.00,0.3594
3987.00,0.3591
3986.00,0.3588
3985.00,0.3584
3984.00,0.3581
3983.00,0.3577
3982.00,0.3574
3981.00,0.3572
3980.00,0.3570
3979.00,0.3569
3978.00,0.3566
3977.00,0.3563
3976.00,0.3561
3975.00,0.3558
3974.00,0.3556
3973.00,0.3555
3972.00,0.3553
3971.00,0.3551
3970.00,0.3548
3969.00,0.3545
3968.00,0.3542
3967.00,0.3540
3966.00,0.3539
3965.00,0.3537
3964.00,0.3536
3963.00,0.3533
3962.00,0.3530
3961.00,0.3527
3960.00,0.3525
3959.00,0.3523
3958.00,0.3521
3957.00,0.3519
3956.00,0.3518
3955.00,0.3516
3954.00,0.3513
3953.00,0.3511
3952.00,0.3509
3951.00,0.3508
3950.00,0.3507
3949.00,0.3506
3948.00,0.3505
3947.00,0.3504
3946.00,0.3503
3945.00,0.3502
3944.00,0.3501
3943.00,0.3500
3942.00,0.3500
3941.00,0.3499
3940.00,0.3498
3939.00,0.3498
3938.00,0.3497
3937.00,0.3497
3936.00,0.3496
3935.00,0.3496
3934.00,0.3496
3933.00,0.3496
3932.00,0.3497
3931.00,0.3496
3930.00,0.3496
3929.00,0.3495
3928.00,0.3495
3927.00,0.3494
3926.00,0.3493
3925.00,0.3493
3924.00,0.3492
3923.00,0.3491
3922.00,0.3491
3921.00,0.3490
3920.00,0.3489
3919.00,0.3488
3918.00,0.3487
3917.00,0.3487
3916.00,0.3487
3915.00,0.3486
3914.00,0.3484
3913.00,0.3482
3912.00,0.3481
3911.00,0.3480
3910.00,0.3479
3909.00,0.3479
3908.00,0.3479
3907.00,0.3480
3906.00,0.3482
3905.00,0.3483
3904.00,0.3483
3903.00,0.3484
3902.00,0.3485
3901.00,0.3487
3900.00,0.3488
3899.00,0.3488
3898.00,0.3487
3897.00,0.3486
3896.00,0.3484
3895.00,0.3482
3894.00,0.3480
3893.00,0.3479
3892.00,0.3478
3891.00,0.3477
3890.00,0.3475
3889.00,0.3474
3888.00,0.3474
3887.00,0.3474
3886.00,0.3474
3885.00,0.3473
3884.00,0.3472
3883.00,0.3472
3882.00,0.3472
3881.00,0.3471
3880.00,0.3469
3879.00,0.3467
3878.00,0.3464
3877.00,0.3462
3876.00,0.3461
3875.00,0.3460
3874.00,0.3459
3873.00,0.3459
3872.00,0.3458
3871.00,0.3459
3870.00,0.3459
3869.00,0.3460
3868.00,0.3460
3867.00,0.3461
3866.00,0.3461
3865.00,0.3460
3864.00,0.3459
3863.00,0.3456
3862.00,0.3454
3861.00,0.3452
3860.00,0.3451
3859.00,0.3450
3858.00,0.3450
3857.00,0.3451
3856.00,0.3452
3855.00,0.3453
3854.00,0.3454
3853.00,0.3454
3852.00,0.3455
3851.00,0.3455
3850.00,0.3454
3849.00,0.3452
3848.00,0.3449
3847.00,0.3446
3846.00,0.3442
3845.00,0.3440
3844.00,0.3438
3843.00,0.3437
3842.00,0.3436
3841.00,0.3435
3840.00,0.3435
3839.00,0.3436
3838.00,0.3437
3837.00,0.3438
3836.00,0.3438
3835.00,0.3438
3834.00,0.3437
3833.00,0.3436
3832.00,0.3433
3831.00,0.3431
3830.00,0.3428
3829.00,0.3426
3828.00,0.3425
3827.00,0.3424
3826.00,0.3424
3825.00,0.3424
3824.00,0.3424
3823.00,0.3424
3822.00,0.3425
3821.00,0.3426
3820.00,0.3425
3819.00,0.3425
3818.00,0.3423
3817.00,0.3422
3816.00,0.3420
3815.00,0.3417
3814.00,0.3414
3813.00,0.3411
3812.00,0.3408
3811.00,0.3405
3810.00,0.3402
3809.00,0.3400
3808.00,0.3397
3807.00,0.3395
3806.00,0.3393
3805.00,0.3391
3804.00,0.3390
3803.00,0.3390
3802.00,0.3389
3801.00,0.3388
3800.00,0.3386
3799.00,0.3385
3798.00,0.3384
3797.00,0.3382
3796.00,0.3380
3795.00,0.3377
3794.00,0.3374
3793.00,0.3371
3792.00,0.3369
3791.00,0.3367
3790.00,0.3365
3789.00,0.3363
3788.00,0.3361
3787.00,0.3360
3786.00,0.3359
3785.00,0.3357
3784.00,0.3356
3783.00,0.3355
3782.00,0.3354
3781.00,0.3354
3780.00,0.3352
3779.00,0.3351
3778.00,0.3349
3777.00,0.3347
3776.00,0.3346
3775.00,0.3344
3774.00,0.3342
3773.00,0.3340
3772.00,0.3338
3771.00,0.3336
3770.00,0.3335
3769.00,0.3333
3768.00,0.3333
3767.00,0.3332
3766.00,0.3331
3765.00,0.3330
3764.00,0.3329
3763.00,0.3328
3762.00,0.3326
3761.00,0.3324
3760.00,0.3321
3759.00,0.3319
3758.00,0.3317
3757.00,0.3315
3756.00,0.3315
3755.00,0.3314
3754.00,0.3314
3753.00,0.3314
3752.00,0.3315
3751.00,0.3315
3750.00,0.3317
3749.00,0.3317
3748.00,0.3318
3747.00,0.3319
3746.00,0.3320
3745.00,0.3319
3744.00,0.3316
3743.00,0.3312
3742.00,0.3309
3741.00,0.3306
3740.00,0.3304
3739.00,0.3302
3738.00,0.3300
3737.00,0.3298
3736.00,0.3297
3735.00,0.3296
3734.00,0.3296
3733.00,0.3295
3732.00,0.3294
3731.00,0.3292
3730.00,0.3289
3729.00,0.3286
3728.00,0.3283
3727.00,0.3280
3726.00,0.3278
3725.00,0.3275
3724.00,0.3273
3723.00,0.3271
3722.00,0.3269
3721.00,0.3266
3720.00,0.3264
3719.00,0.3263
3718.00,0.3262
3717.00,0.3261
3716.00,0.3260
3715.00,0.3259
3714.00,0.3259
3713.00,0.3260
3712.00,0.3261
3711.00,0.3262
3710.00,0.3263
3709.00,0.3263
3708.00,0.3262
3707.00,0.3261
3706.00,0.3259
3705.00,0.3257
3704.00,0.3256
3703.00,0.3256
3702.00,0.3256
3701.00,0.3255
3700.00,0.3254
3699.00,0.3253
3698.00,0.3252
3697.00,0.3251
3696.00,0.3249
3695.00,0.3248
3694.00,0.3248
3693.00,0.3249
3692.00,0.3251
3691.00,0.3253
3690.00,0.3256
3689.00,0.3257
3688.00,0.3258
3687.00,0.3257
3686.00,0.3257
3685.00,0.3255
3684.00,0.3254
3683.00,0.3252
3682.00,0.3249
3681.00,0.3247
3680.00,0.3246
3679.00,0.3246
3678.00,0.3246
3677.00,0.3248
3676.00,0.3249
3675.00,0.3251
3674.00,0.3251
3673.00,0.3252
3672.00,0.3253
3671.00,0.3254
3670.00,0.3254
3669.00,0.3252
3668.00,0.3250
3667.00,0.3248
3666.00,0.3246
3665.00,0.3245
3664.00,0.3242
3663.00,0.3240
3662.00,0.3239
3661.00,0.3239
3660.00,0.3239
3659.00,0.3240
3658.00,0.3242
3657.00,0.3244
3656.00,0.3246
3655.00,0.3248
3654.00,0.3250
3653.00,0.3253
3652.00,0.3257
3651.00,0.3260
3650.00,0.3263
3649.00,0.3265
3648.00,0.3267
3647.00,0.3269
3646.00,0.3270
3645.00,0.3269
3644.00,0.3268
3643.00,0.3267
3642.00,0.3266
3641.00,0.3265
3640.00,0.3265
3639.00,0.3266
3638.00,0.3267
3637.00,0.3269
3636.00,0.3271
3635.00,0.3273
3634.00,0.3274
3633.00,0.3277
3632.00,0.3279
3631.00,0.3283
3630.00,0.3287
3629.00,0.3293
3628.00,0.3298
3627.00,0.3303
3626.00,0.3307
3625.00,0.3311
3624.00,0.3313
3623.00,0.3314
3622.00,0.3314
3621.00,0.3313
3620.00,0.3311
3619.00,0.3308
3618.00,0.3305
3617.00,0.3303
3616.00,0.3302
3615.00,0.3302
3614.00,0.3302
3613.00,0.3302
3612.00,0.3302
3611.00,0.3302
3610.00,0.3302
3609.00,0.3302
3608.00,0.3303
3607.00,0.3303
3606.00,0.3302
3605.00,0.3300
3604.00,0.3298
3603.00,0.3294
3602.00,0.3290
3601.00,0.3286
3600.00,0.3281
3599.00,0.3276
3598.00,0.3271
3597.00,0.3266
3596.00,0.3260
3595.00,0.3254
3594.00,0.3250
3593.00,0.3246
3592.00,0.3242
3591.00,0.3238
3590.00,0.3235
3589.00,0.3232
3588.00,0.3231
3587.00,0.3229
3586.00,0.3228
3585.00,0.3227
3584.00,0.3226
3583.00,0.3225
3582.00,0.3224
3581.00,0.3224
3580.00,0.3223
3579.00,0.3223
3578.00,0.3223
3577.00,0.3224
3576.00,0.3224
3575.00,0.3225
3574.00,0.3226
3573.00,0.3227
3572.00,0.3228
3571.00,0.3229
3570.00,0.3231
3569.00,0.3233
3568.00,0.3236
3567.00,0.3238
3566.00,0.3240
3565.00,0.3241
3564.00,0.3243
3563.00,0.3245
3562.00,0.3247
3561.00,0.3247
3560.00,0.3248
3559.00,0.3248
3558.00,0.3250
3557.00,0.3252
3556.00,0.3255
3555.00,0.3258
3554.00,0.3261
3553.00,0.3264
3552.00,0.3267
3551.00,0.3271
3550.00,0.3275
3549.00,0.3279
3548.00,0.3284
3547.00,0.3289
3546.00,0.3293
3545.00,0.3297
3544.00,0.3301
3543.00,0.3305
3542.00,0.3308
3541.00,0.3312
3540.00,0.3316
3539.00,0.3320
3538.00,0.3323
3537.00,0.3326
3536.00,0.3329
3535.00,0.3331
3534.00,0.3334
3533.00,0.3336
3532.00,0.3339
3531.00,0.3341
3530.00,0.3344
3529.00,0.3347
3528.00,0.3350
3527.00,0.3352
3526.00,0.3355
3525.00,0.3358
3524.00,0.3361
3523.00,0.3363
3522.00,0.3366
3521.00,0.3369
3520.00,0.3373
3519.00,0.3376
3518.00,0.3380
3517.00,0.3384
3516.00,0.3388
3515.00,0.3392
3514.00,0.3396
3513.00,0.3400
3512.00,0.3404
3511.00,0.3408
3510.00,0.3413
3509.00,0.3419
3508.00,0.3425
3507.00,0.3431
3506.00,0.3436
3505.00,0.3441
3504.00,0.3446
3503.00,0.3450
3502.00,0.3455
3501.00,0.3460
3500.00,0.3466
3499.00,0.3472
3498.00,0.3478
3497.00,0.3484
3496.00,0.3490
3495.00,0.3496
3494.00,0.3502
3493.00,0.3508
3492.00,0.3514
3491.00,0.3520
3490.00,0.3526
3489.00,0.3532
3488.00,0.3539
3487.00,0.3546
3486.00,0.3552
3485.00,0.3558
3484.00,0.3563
3483.00,0.3568
3482.00,0.3573
3481.00,0.3578
3480.00,0.3583
3479.00,0.3588
3478.00,0.3593
3477.00,0.3598
3476.00,0.3603
3475.00,0.3607
3474.00,0.3612
3473.00,0.3618
3472.00,0.3623
3471.00,0.3628
3470.00,0.3634
3469.00,0.3639
3468.00,0.3644
3467.00,0.3650
3466.00,0.3655
3465.00,0.3662
3464.00,0.3668
3463.00,0.3675
3462.00,0.3681
3461.00,0.3688
3460.00,0.3694
3459.00,0.3699
3458.00,0.3705
3457.00,0.3710
3456.00,0.3716
3455.00,0.3722
3454.00,0.3727
3453.00,0.3734
3452.00,0.3740
3451.00,0.3747
3450.00,0.3753
3449.00,0.3760
3448.00,0.3767
3447.00,0.3774
3446.00,0.3781
3445.00,0.3787
3444.00,0.3793
3443.00,0.3800
3442.00,0.3807
3441.00,0.3815
3440.00,0.3823
3439.00,0.3831
3438.00,0.3839
3437.00,0.3846
3436.00,0.3854
3435.00,0.3862
3434.00,0.3870
3433.00,0.3877
3432.00,0.3884
3431.00,0.3892
3430.00,0.3899
3429.00,0.3907
3428.00,0.3914
3427.00,0.3922
3426.00,0.3930
3425.00,0.3938
3424.00,0.3946
3423.00,0.3953
3422.00,0.3961
3421.00,0.3969
3420.00,0.3978
3419.00,0.3986
3418.00,0.3995
3417.00,0.4004
3416.00,0.4012
3415.00,0.4021
3414.00,0.4030
3413.00,0.4039
3412.00,0.4048
3411.00,0.4057
3410.00,0.4066
3409.00,0.4075
3408.00,0.4084
3407.00,0.4094
3406.00,0.4104
3405.00,0.4114
3404.00,0.4124
3403.00,0.4134
3402.00,0.4145
3401.00,0.4155
3400.00,0.4166
3399.00,0.4176
3398.00,0.4186
3397.00,0.4197
3396.00,0.4208
3395.00,0.4219
3394.00,0.4230
3393.00,0.4241
3392.00,0.4251
3391.00,0.4260
3390.00,0.4270
3389.00,0.4281
3388.00,0.4292
3387.00,0.4303
3386.00,0.4314
3385.00,0.4325
3384.00,0.4336
3383.00,0.4347
3382.00,0.4358
3381.00,0.4368
3380.00,0.4379
3379.00,0.4391
3378.00,0.4403
3377.00,0.4415
3376.00,0.4428
3375.00,0.4441
3374.00,0.4453
3373.00,0.4465
3372.00,0.4477
3371.00,0.4490
3370.00,0.4504
3369.00,0.4518
3368.00,0.4532
3367.00,0.4546
3366.00,0.4561
3365.00,0.4575
3364.00,0.4591
3363.00,0.4606
3362.00,0.4621
3361.00,0.4636
3360.00,0.4651
3359.00,0.4666
3358.00,0.4681
3357.00,0.4696
3356.00,0.4712
3355.00,0.4728
3354.00,0.4744
3353.00,0.4761
3352.00,0.4778
3351.00,0.4794
3350.00,0.4810
3349.00,0.4826
3348.00,0.4841
3347.00,0.4855
3346.00,0.4868
3345.00,0.4881
3344.00,0.4894
3343.00,0.4907
3342.00,0.4920
3341.00,0.4933
3340.00,0.4945
3339.00,0.4957
3338.00,0.4968
3337.00,0.4979
3336.00,0.4988
3335.00,0.4997
3334.00,0.5005
3333.00,0.5013
3332.00,0.5021
3331.00,0.5027
3330.00,0.5032
3329.00,0.5036
3328.00,0.5039
3327.00,0.5041
3326.00,0.5042
3325.00,0.5042
3324.00,0.5042
3323.00,0.5041
3322.00,0.5039
3321.00,0.5038
3320.00,0.5036
3319.00,0.5033
3318.00,0.5028
3317.00,0.5023
3316.00,0.5017
3315.00,0.5011
3314.00,0.5005
3313.00,0.4997
3312.00,0.4990
3311.00,0.4981
3310.00,0.4973
3309.00,0.4964
3308.00,0.4956
3307.00,0.4948
3306.00,0.4940
3305.00,0.4932
3304.00,0.4924
3303.00,0.4916
3302.00,0.4907
3301.00,0.4899
3300.00,0.4891
3299.00,0.4885
3298.00,0.4878
3297.00,0.4871
3296.00,0.4864
3295.00,0.4858
3294.00,0.4852
3293.00,0.4847
3292.00,0.4844
3291.00,0.4840
3290.00,0.4838
3289.00,0.4835
3288.00,0.4832
3287.00,0.4829
3286.00,0.4827
3285.00,0.4826
3284.00,0.4825
3283.00,0.4825
3282.00,0.4825
3281.00,0.4826
3280.00,0.4827
3279.00,0.4829
3278.00,0.4831
3277.00,0.4832
3276.00,0.4835
3275.00,0.4837
3274.00,0.4839
3273.00,0.4842
3272.00,0.4846
3271.00,0.4851
3270.00,0.4855
3269.00,0.4859
3268.00,0.4862
3267.00,0.4866
3266.00,0.4869
3265.00,0.4874
3264.00,0.4878
3263.00,0.4884
3262.00,0.4890
3261.00,0.4895
3260.00,0.4901
3259.00,0.4906
3258.00,0.4911
3257.00,0.4917
3256.00,0.4923
3255.00,0.4929
3254.00,0.4934
3253.00,0.4938
3252.00,0.4943
3251.00,0.4947
3250.00,0.4952
3249.00,0.4957
3248.00,0.4962
3247.00,0.4967
3246.00,0.4971
3245.00,0.4974
3244.00,0.4978
3243.00,0.4981
3242.00,0.4985
3241.00,0.4988
3240.00,0.4990
3239.00,0.4992
3238.00,0.4994
3237.00,0.4995
3236.00,0.4997
3235.00,0.4998
3234.00,0.4999
3233.00,0.4999
3232.00,0.5000
3231.00,0.5000
3230.00,0.4999
3229.00,0.4998
3228.00,0.4997
3227.00,0.4996
3226.00,0.4995
3225.00,0.4994
3224.00,0.4994
3223.00,0.4993
3222.00,0.4991
3221.00,0.4990
3220.00,0.4988
3219.00,0.4986
3218.00,0.4984
3217.00,0.4982
3216.00,0.4980
3215.00,0.4978
3214.00,0.4975
3213.00,0.4973
3212.00,0.4971
3211.00,0.4969
3210.00,0.4968
3209.00,0.4966
3208.00,0.4964
3207.00,0.4961
3206.00,0.4958
3205.00,0.4954
3204.00,0.4950
3203.00,0.4947
3202.00,0.4943
3201.00,0.4941
3200.00,0.4938
3199.00,0.4935
3198.00,0.4932
3197.00,0.4928
3196.00,0.4923
3195.00,0.4918
3194.00,0.4913
3193.00,0.4909
3192.00,0.4905
3191.00,0.4900
3190.00,0.4895
3189.00,0.4890
3188.00,0.4885
3187.00,0.4880
3186.00,0.4875
3185.00,0.4870
3184.00,0.4864
3183.00,0.4859
3182.00,0.4853
3181.00,0.4848
3180.00,0.4842
3179.00,0.4836
3178.00,0.4830
3177.00,0.4823
3176.00,0.4815
3175.00,0.4807
3174.00,0.4799
3173.00,0.4792
3172.00,0.4786
3171.00,0.4780
3170.00,0.4773
3169.00,0.4765
3168.00,0.4757
3167.00,0.4748
3166.00,0.4740
3165.00,0.4732
3164.00,0.4724
3163.00,0.4716
3162.00,0.4708
3161.00,0.4700
3160.00,0.4691
3159.00,0.4682
3158.00,0.4674
3157.00,0.4666
3156.00,0.4659
3155.00,0.4651
3154.00,0.4644
3153.00,0.4637
3152.00,0.4629
3151.00,0.4622
3150.00,0.4615
3149.00,0.4609
3148.00,0.4602
3147.00,0.4595
3146.00,0.4589
3145.00,0.4583
3144.00,0.4577
3143.00,0.4572
3142.00,0.4567
3141.00,0.4562
3140.00,0.4558
3139.00,0.4554
3138.00,0.4549
3137.00,0.4545
3136.00,0.4541
3135.00,0.4536
3134.00,0.4532
3133.00,0.4527
3132.00,0.4525
3131.00,0.4523
3130.00,0.4522
3129.00,0.4521
3128.00,0.4519
3127.00,0.4518
3126.00,0.4517
3125.00,0.4517
3124.00,0.4517
3123.00,0.4518
3122.00,0.4519
3121.00,0.4521
3120.00,0.4523
3119.00,0.4526
3118.00,0.4529
3117.00,0.4533
3116.00,0.4537
3115.00,0.4541
3114.00,0.4546
3113.00,0.4551
3112.00,0.4556
3111.00,0.4562
3110.00,0.4568
3109.00,0.4574
3108.00,0.4582
3107.00,0.4590
3106.00,0.4598
3105.00,0.4606
3104.00,0.4615
3103.00,0.4623
3102.00,0.4631
3101.00,0.4639
3100.00,0.4647
3099.00,0.4656
3098.00,0.4666
3097.00,0.4677
3096.00,0.4689
3095.00,0.4702
3094.00,0.4717
3093.00,0.4734
3092.00,0.4753
3091.00,0.4773
3090.00,0.4794
3089.00,0.4818
3088.00,0.4843
3087.00,0.4869
3086.00,0.4896
3085.00,0.4925
3084.00,0.4955
3083.00,0.4986
3082.00,0.5017
3081.00,0.5049
3080.00,0.5084
3079.00,0.5120
3078.00,0.5159
3077.00,0.5199
3076.00,0.5241
3075.00,0.5284
3074.00,0.5327
3073.00,0.5370
3072.00,0.5413
3071.00,0.5457
3070.00,0.5500
3069.00,0.5544
3068.00,0.5588
3067.00,0.5632
3066.00,0.5675
3065.00,0.5715
3064.00,0.5754
3063.00,0.5789
3062.00,0.5822
3061.00,0.5852
3060.00,0.5881
3059.00,0.5909
3058.00,0.5938
3057.00,0.5966
3056.00,0.5994
3055.00,0.6022
3054.00,0.6053
3053.00,0.6086
3052.00,0.6123
3051.00,0.6161
3050.00,0.6202
3049.00,0.6245
3048.00,0.6289
3047.00,0.6335
3046.00,0.6381
3045.00,0.6427
3044.00,0.6473
3043.00,0.6519
3042.00,0.6564
3041.00,0.6609
3040.00,0.6654
3039.00,0.6701
3038.00,0.6750
3037.00,0.6801
3036.00,0.6855
3035.00,0.6913
3034.00,0.6975
3033.00,0.7043
3032.00,0.7116
3031.00,0.7193
3030.00,0.7275
3029.00,0.7362
3028.00,0.7451
3027.00,0.7543
3026.00,0.7639
3025.00,0.7739
3024.00,0.7842
3023.00,0.7946
3022.00,0.8053
3021.00,0.8164
3020.00,0.8278
3019.00,0.8395
3018.00,0.8515
3017.00,0.8636
3016.00,0.8757
3015.00,0.8878
3014.00,0.9000
3013.00,0.9123
3012.00,0.9249
3011.00,0.9380
3010.00,0.9517
3009.00,0.9661
3008.00,0.9812
3007.00,0.9968
3006.00,1.0130
3005.00,1.0301
3004.00,1.0478
3003.00,1.0661
3002.00,1.0846
3001.00,1.1035
3000.00,1.1232
2999.00,1.1442
2998.00,1.1669
2997.00,1.1915
2996.00,1.2184
2995.00,1.2483
2994.00,1.2817
2993.00,1.3192
2992.00,1.3610
2991.00,1.4075
2990.00,1.4594
2989.00,1.5169
2988.00,1.5806
2987.00,1.6512
2986.00,1.7300
2985.00,1.8183
2984.00,1.9172
2983.00,2.0278
2982.00,2.1504
2981.00,2.2843
2980.00,2.4281
2979.00,2.5816
2978.00,2.7466
2977.00,2.9229
2976.00,3.1069
2975.00,3.2916
2974.00,3.4565
2973.00,3.5544
2972.00,3.5733
2971.00,3.5905
2970.00,3.6670
2969.00,3.7821
2968.00,3.8275
2967.00,3.7689
2966.00,3.7282
2965.00,3.7817
2964.00,3.9469
2963.00,4.1247
2962.00,4.1317
2961.00,4.1149
2960.00,4.2354
2959.00,4.3051
2958.00,4.0917
2957.00,3.9237
2956.00,3.9114
2955.00,4.0608
2954.00,4.3334
2953.00,4.5039
2952.00,4.4940
2951.00,4.3962
2950.00,4.5553
2949.00,4.7820
2948.00,4.3194
2947.00,4.0414
2946.00,3.9272
2945.00,3.9860
2944.00,4.1015
2943.00,4.1449
2942.00,4.1002
2941.00,3.9912
2940.00,3.9128
2939.00,3.9022
2938.00,3.9664
2937.00,4.0454
2936.00,4.0647
2935.00,4.0241
2934.00,4.0705
2933.00,4.2321
2932.00,4.2315
2931.00,4.1378
2930.00,4.1701
2929.00,4.4034
2928.00,4.4541
2927.00,4.2703
2926.00,4.0946
2925.00,3.9940
2924.00,3.9607
2923.00,4.0200
2922.00,4.1322
2921.00,4.1722
2920.00,4.2288
2919.00,4.3459
2918.00,4.3937
2917.00,4.2394
2916.00,4.0531
2915.00,3.9636
2914.00,4.0567
2913.00,4.4103
2912.00,4.6381
2911.00,4.4124
2910.00,4.1403
2909.00,4.0837
2908.00,4.0867
2907.00,4.1822
2906.00,4.5162
2905.00,4.7785
2904.00,4.5230
2903.00,4.1237
2902.00,4.0031
2901.00,4.0993
2900.00,4.1947
2899.00,4.0823
2898.00,4.0294
2897.00,4.1872
2896.00,4.2162
2895.00,4.0288
2894.00,3.9575
2893.00,4.0623
2892.00,4.2374
2891.00,4.3696
2890.00,4.3009
2889.00,4.1330
2888.00,4.0090
2887.00,3.9428
2886.00,3.9493
2885.00,4.1147
2884.00,4.3679
2883.00,4.3441
2882.00,4.1835
2881.00,4.0572
2880.00,3.9167
2879.00,3.7732
2878.00,3.7217
2877.00,3.7584
2876.00,3.8391
2875.00,3.9235
2874.00,3.9691
2873.00,4.1512
2872.00,4.5505
2871.00,4.4873
2870.00,4.3843
2869.00,4.3552
2868.00,4.4206
2867.00,4.2551
2866.00,4.1034
2865.00,4.0992
2864.00,4.1142
2863.00,3.9993
2862.00,3.8142
2861.00,3.7253
2860.00,3.7595
2859.00,3.8172
2858.00,3.8481
2857.00,3.9292
2856.00,4.0724
2855.00,4.1511
2854.00,4.2166
2853.00,4.4701
2852.00,4.6570
2851.00,4.4384
2850.00,4.2291
2849.00,4.1836
2848.00,4.1346
2847.00,4.0382
2846.00,4.0087
2845.00,4.0251
2844.00,4.0782
2843.00,4.1652
2842.00,4.2052
2841.00,4.1911
2840.00,4.1162
2839.00,3.8564
2838.00,3.5144
2837.00,3.2109
2836.00,2.9651
2835.00,2.7586
2834.00,2.5772
2833.00,2.4129
2832.00,2.2624
2831.00,2.1264
2830.00,2.0052
2829.00,1.8980
2828.00,1.8026
2827.00,1.7175
2826.00,1.6408
2825.00,1.5714
2824.00,1.5082
2823.00,1.4504
2822.00,1.3972
2821.00,1.3483
2820.00,1.3033
2819.00,1.2617
2818.00,1.2232
2817.00,1.1876
2816.00,1.1544
2815.00,1.1234
2814.00,1.0943
2813.00,1.0670
2812.00,1.0413
2811.00,1.0170
2810.00,0.9939
2809.00,0.9719
2808.00,0.9510
2807.00,0.9313
2806.00,0.9126
2805.00,0.8948
2804.00,0.8779
2803.00,0.8619
2802.00,0.8467
2801.00,0.8324
2800.00,0.8186
2799.00,0.8054
2798.00,0.7927
2797.00,0.7805
2796.00,0.7688
2795.00,0.7576
2794.00,0.7468
2793.00,0.7362
2792.00,0.7259
2791.00,0.7158
2790.00,0.7060
2789.00,0.6965
2788.00,0.6872
2787.00,0.6781
2786.00,0.6692
2785.00,0.6605
2784.00,0.6521
2783.00,0.6439
2782.00,0.6359
2781.00,0.6282
2780.00,0.6208
2779.00,0.6137
2778.00,0.6070
2777.00,0.6007
2776.00,0.5946
2775.00,0.5890
2774.00,0.5837
2773.00,0.5788
2772.00,0.5742
2771.00,0.5699
2770.00,0.5659
2769.00,0.5624
2768.00,0.5592
2767.00,0.5563
2766.00,0.5538
2765.00,0.5516
2764.00,0.5496
2763.00,0.5479
2762.00,0.5464
2761.00,0.5449
2760.00,0.5436
2759.00,0.5423
2758.00,0.5410
2757.00,0.5398
2756.00,0.5386
2755.00,0.5376
2754.00,0.5368
2753.00,0.5362
2752.00,0.5357
2751.00,0.5353
2750.00,0.5351
2749.00,0.5351
2748.00,0.5353
2747.00,0.5358
2746.00,0.5365
2745.00,0.5376
2744.00,0.5389
2743.00,0.5405
2742.00,0.5426
2741.00,0.5450
2740.00,0.5478
2739.00,0.5511
2738.00,0.5550
2737.00,0.5593
2736.00,0.5641
2735.00,0.5692
2734.00,0.5745
2733.00,0.5798
2732.00,0.5846
2731.00,0.5887
2730.00,0.5918
2729.00,0.5938
2728.00,0.5946
2727.00,0.5944
2726.00,0.5935
2725.00,0.5920
2724.00,0.5901
2723.00,0.5878
2722.00,0.5850
2721.00,0.5819
2720.00,0.5785
2719.00,0.5749
2718.00,0.5709
2717.00,0.5668
2716.00,0.5625
2715.00,0.5580
2714.00,0.5535
2713.00,0.5491
2712.00,0.5449
2711.00,0.5411
2710.00,0.5377
2709.00,0.5348
2708.00,0.5323
2707.00,0.5302
2706.00,0.5284
2705.00,0.5269
2704.00,0.5257
2703.00,0.5247
2702.00,0.5241
2701.00,0.5236
2700.00,0.5234
2699.00,0.5234
2698.00,0.5236
2697.00,0.5239
2696.00,0.5244
2695.00,0.5249
2694.00,0.5256
2693.00,0.5263
2692.00,0.5272
2691.00,0.5281
2690.00,0.5290
2689.00,0.5298
2688.00,0.5305
2687.00,0.5312
2686.00,0.5318
2685.00,0.5324
2684.00,0.5329
2683.00,0.5334
2682.00,0.5337
2681.00,0.5341
2680.00,0.5345
2679.00,0.5350
2678.00,0.5355
2677.00,0.5360
2676.00,0.5365
2675.00,0.5369
2674.00,0.5373
2673.00,0.5376
2672.00,0.5379
2671.00,0.5380
2670.00,0.5378
