Created as New Dataset,
cm-1,A
4000.00,0.3650
3999.00,0.3647
3998.00,0.3644
3997.00,0.3641
3996.00,0.3638
3995.00,0.3634
3994.00,0.3630
3993.00,0.3627
3992.00,0.3625
3991.00,0.3622
3990.00,0.3618
3989.00,0.3615
3988.00,0.3611
3987.00,0.3608
3986.00,0.3605
3985.00,0.3602
3984.00,0.3599
3983.00,0.3597
3982.00,0.3595
3981.00,0.3592
3980.00,0.3590
3979.00,0.3588
3978.00,0.3586
3977.00,0.3583
3976.00,0.3580
3975.00,0.3577
3974.00,0.3574
3973.00,0.3570
3972.00,0.3566
3971.00,0.3562
3970.00,0.3559
3969.00,0.3557
3968.00,0.3555
3967.00,0.3553
3966.00,0.3551
3965.00,0.3549
3964.00,0.3546
3963.00,0.3545
3962.00,0.3543
3961.00,0.3542
3960.00,0.3540
3959.00,0.3538
3958.00,0.3535
3957.00,0.3533
3956.00,0.3531
3955.00,0.3530
3954.00,0.3530
3953.00,0.3529
3952.00,0.3528
3951.00,0.3527
3950.00,0.3525
3949.00,0.3524
3948.00,0.3522
3947.00,0.3522
3946.00,0.3522
3945.00,0.3522
3944.00,0.3522
3943.00,0.3521
3942.00,0.3521
3941.00,0.3520
3940.00,0.3519
3939.00,0.3517
3938.00,0.3515
3937.00,0.3513
3936.00,0.3512
3935.00,0.3511
3934.00,0.3510
3933.00,0.3509
3932.00,0.3509
3931.00,0.3509
3930.00,0.3509
3929.00,0.3508
3928.00,0.3507
3927.00,0.3505
3926.00,0.3505
3925.00,0.3505
3924.00,0.3504
3923.00,0.3504
3922.00,0.3504
3921.00,0.3503
3920.00,0.3503
3919.00,0.3503
3918.00,0.3502
3917.00,0.3501
3916.00,0.3500
3915.00,0.3500
3914.00,0.3500
3913.00,0.3501
3912.00,0.3501
3911.00,0.3501
3910.00,0.3501
3909.00,0.3501
3908.00,0.3501
3907.00,0.3502
3906.00,0.3503
3905.00,0.3503
3904.00,0.3504
3903.00,0.3504
3902.00,0.3504
3901.00,0.3504
3900.00,0.3504
3899.00,0.3503
3898.00,0.3503
3897.00,0.3501
3896.00,0.3500
3895.00,0.3498
3894.00,0.3496
3893.00,0.3494
3892.00,0.3492
3891.00,0.3491
3890.00,0.3489
3889.00,0.3487
3888.00,0.3486
3887.00,0.3486
3886.00,0.3487
3885.00,0.3488
3884.00,0.3488
3883.00,0.3487
3882.00,0.3486
3881.00,0.3484
3880.00,0.3483
3879.00,0.3482
3878.00,0.3481
3877.00,0.3481
3876.00,0.3481
3875.00,0.3481
3874.00,0.3481
3873.00,0.3481
3872.00,0.3481
3871.00,0.3481
3870.00,0.3482
3869.00,0.3483
3868.00,0.3482
3867.00,0.3481
3866.00,0.3479
3865.00,0.3476
3864.00,0.3474
3863.00,0.3472
3862.00,0.3470
3861.00,0.3468
3860.00,0.3466
3859.00,0.3466
3858.00,0.3466
3857.00,0.3468
3856.00,0.3468
3855.00,0.3467
3854.00,0.3466
3853.00,0.3466
3852.00,0.3467
3851.00,0.3467
3850.00,0.3465
3849.00,0.3462
3848.00,0.3458
3847.00,0.3455
3846.00,0.3452
3845.00,0.3450
3844.00,0.3449
3843.00,0.3450
3842.00,0.3451
3841.00,0.3451
3840.00,0.3452
3839.00,0.3453
3838.00,0.3455
3837.00,0.3456
3836.00,0.3457
3835.00,0.3457
3834.00,0.3455
3833.00,0.3454
3832.00,0.3452
3831.00,0.3450
3830.00,0.3448
3829.00,0.3446
3828.00,0.3444
3827.00,0.3442
3826.00,0.3441
3825.00,0.3440
3824.00,0.3439
3823.00,0.3439
3822.00,0.3439
3821.00,0.3440
3820.00,0.3441
3819.00,0.3440
3818.00,0.3438
3817.00,0.3435
3816.00,0.3433
3815.00,0.3430
3814.00,0.3427
3813.00,0.3423
3812.00,0.3419
3811.00,0.3417
3810.00,0.3415
3809.00,0.3413
3808.00,0.3411
3807.00,0.3410
3806.00,0.3410
3805.00,0.3410
3804.00,0.3409
3803.00,0.3408
3802.00,0.3408
3801.00,0.3407
3800.00,0.3406
3799.00,0.3403
3798.00,0.3400
3797.00,0.3398
3796.00,0.3396
3795.00,0.3394
3794.00,0.3391
3793.00,0.3388
3792.00,0.3386
3791.00,0.3384
3790.00,0.3382
3789.00,0.3381
3788.00,0.3379
3787.00,0.3377
3786.00,0.3375
3785.00,0.3373
3784.00,0.3372
3783.00,0.3371
3782.00,0.3370
3781.00,0.3369
3780.00,0.3367
3779.00,0.3365
3778.00,0.3363
3777.00,0.3361
3776.00,0.3359
3775.00,0.3357
3774.00,0.3355
3773.00,0.3354
3772.00,0.3352
3771.00,0.3351
3770.00,0.3350
3769.00,0.3350
3768.00,0.3349
3767.00,0.3348
3766.00,0.3346
3765.00,0.3345
3764.00,0.3344
3763.00,0.3342
3762.00,0.3340
3761.00,0.3339
3760.00,0.3338
3759.00,0.3336
3758.00,0.3335
3757.00,0.3334
3756.00,0.3334
3755.00,0.3334
3754.00,0.3335
3753.00,0.3336
3752.00,0.3336
3751.00,0.3336
3750.00,0.3336
3749.00,0.3337
3748.00,0.3337
3747.00,0.3336
3746.00,0.3335
3745.00,0.3334
3744.00,0.3331
3743.00,0.3328
3742.00,0.3323
3741.00,0.3319
3740.00,0.3317
3739.00,0.3315
3738.00,0.3313
3737.00,0.3310
3736.00,0.3308
3735.00,0.3307
3734.00,0.3307
3733.00,0.3307
3732.00,0.3306
3731.00,0.3303
3730.00,0.3300
3729.00,0.3296
3728.00,0.3292
3727.00,0.3289
3726.00,0.3287
3725.00,0.3285
3724.00,0.3284
3723.00,0.3283
3722.00,0.3283
3721.00,0.3282
3720.00,0.3281
3719.00,0.3280
3718.00,0.3279
3717.00,0.3278
3716.00,0.3277
3715.00,0.3276
3714.00,0.3275
3713.00,0.3274
3712.00,0.3274
3711.00,0.3274
3710.00,0.3274
3709.00,0.3273
3708.00,0.3272
3707.00,0.3270
3706.00,0.3269
3705.00,0.3268
3704.00,0.3266
3703.00,0.3265
3702.00,0.3264
3701.00,0.3264
3700.00,0.3264
3699.00,0.3265
3698.00,0.3265
3697.00,0.3265
3696.00,0.3264
3695.00,0.3264
3694.00,0.3264
3693.00,0.3265
3692.00,0.3267
3691.00,0.3268
3690.00,0.3270
3689.00,0.3271
3688.00,0.3273
3687.00,0.3273
3686.00,0.3272
3685.00,0.3271
3684.00,0.3269
3683.00,0.3268
3682.00,0.3266
3681.00,0.3264
3680.00,0.3262
3679.00,0.3262
3678.00,0.3262
3677.00,0.3262
3676.00,0.3264
3675.00,0.3267
3674.00,0.3270
3673.00,0.3271
3672.00,0.3271
3671.00,0.3270
3670.00,0.3269
3669.00,0.3267
3668.00,0.3265
3667.00,0.3262
3666.00,0.3259
3665.00,0.3257
3664.00,0.3255
3663.00,0.3255
3662.00,0.3255
3661.00,0.3255
3660.00,0.3256
3659.00,0.3258
3658.00,0.3259
3657.00,0.3262
3656.00,0.3264
3655.00,0.3267
3654.00,0.3270
3653.00,0.3272
3652.00,0.3275
3651.00,0.3278
3650.00,0.3281
3649.00,0.3283
3648.00,0.3284
3647.00,0.3285
3646.00,0.3286
3645.00,0.3285
3644.00,0.3284
3643.00,0.3282
3642.00,0.3281
3641.00,0.3280
3640.00,0.3279
3639.00,0.3279
3638.00,0.3280
3637.00,0.3281
3636.00,0.3283
3635.00,0.3284
3634.00,0.3286
3633.00,0.3288
3632.00,0.3291
3631.00,0.3294
3630.00,0.3298
3629.00,0.3302
3628.00,0.3307
3627.00,0.3311
3626.00,0.3314
3625.00,0.3316
3624.00,0.3319
3623.00,0.3321
3622.00,0.3322
3621.00,0.3323
3620.00,0.3323
3619.00,0.3321
3618.00,0.3320
3617.00,0.3319
3616.00,0.3318
3615.00,0.3317
3614.00,0.3317
3613.00,0.3318
3612.00,0.3317
3611.00,0.3317
3610.00,0.3315
3609.00,0.3314
3608.00,0.3313
3607.00,0.3312
3606.00,0.3312
3605.00,0.3311
3604.00,0.3309
3603.00,0.3306
3602.00,0.3302
3601.00,0.3298
3600.00,0.3293
3599.00,0.3288
3598.00,0.3283
3597.00,0.3277
3596.00,0.3272
3595.00,0.3266
3594.00,0.3261
3593.00,0.3257
3592.00,0.3254
3591.00,0.3252
3590.00,0.3250
3589.00,0.3248
3588.00,0.3246
3587.00,0.3245
3586.00,0.3245
3585.00,0.3244
3584.00,0.3243
3583.00,0.3242
3582.00,0.3242
3581.00,0.3241
3580.00,0.3241
3579.00,0.3241
3578.00,0.3241
3577.00,0.3242
3576.00,0.3243
3575.00,0.3243
3574.00,0.3244
3573.00,0.3245
3572.00,0.3246
3571.00,0.3247
3570.00,0.3249
3569.00,0.3250
3568.00,0.3252
3567.00,0.3255
3566.00,0.3258
3565.00,0.3260
3564.00,0.3261
3563.00,0.3262
3562.00,0.3263
3561.00,0.3265
3560.00,0.3266
3559.00,0.3268
3558.00,0.3270
3557.00,0.3272
3556.00,0.3275
3555.00,0.3278
3554.00,0.3281
3553.00,0.3283
3552.00,0.3287
3551.00,0.3290
3550.00,0.3294
3549.00,0.3298
3548.00,0.3302
3547.00,0.3307
3546.00,0.3311
3545.00,0.3316
3544.00,0.3320
3543.00,0.3324
3542.00,0.3328
3541.00,0.3331
3540.00,0.3334
3539.00,0.3337
3538.00,0.3341
3537.00,0.3344
3536.00,0.3347
3535.00,0.3349
3534.00,0.3351
3533.00,0.3354
3532.00,0.3356
3531.00,0.3359
3530.00,0.3363
3529.00,0.3366
3528.00,0.3369
3527.00,0.3372
3526.00,0.3374
3525.00,0.3376
3524.00,0.3378
3523.00,0.3380
3522.00,0.3383
3521.00,0.3386
3520.00,0.3389
3519.00,0.3393
3518.00,0.3397
3517.00,0.3400
3516.00,0.3403
3515.00,0.3407
3514.00,0.3411
3513.00,0.3416
3512.00,0.3422
3511.00,0.3427
3510.00,0.3432
3509.00,0.3437
3508.00,0.3443
3507.00,0.3448
3506.00,0.3452
3505.00,0.3457
3504.00,0.3462
3503.00,0.3467
3502.00,0.3473
3501.00,0.3478
3500.00,0.3483
3499.00,0.3488
3498.00,0.3493
3497.00,0.3498
3496.00,0.3503
3495.00,0.3509
3494.00,0.3514
3493.00,0.3520
3492.00,0.3526
3491.00,0.3532
3490.00,0.3538
3489.00,0.3545
3488.00,0.3552
3487.00,0.3559
3486.00,0.3565
3485.00,0.3572
3484.00,0.3578
3483.00,0.3583
3482.00,0.3588
3481.00,0.3592
3480.00,0.3597
3479.00,0.3602
3478.00,0.3607
3477.00,0.3612
3476.00,0.3617
3475.00,0.3622
3474.00,0.3626
3473.00,0.3631
3472.00,0.3636
3471.00,0.3642
3470.00,0.3647
3469.00,0.3653
3468.00,0.3658
3467.00,0.3663
3466.00,0.3668
3465.00,0.3674
3464.00,0.3679
3463.00,0.3684
3462.00,0.3690
3461.00,0.3696
3460.00,0.3702
3459.00,0.3707
3458.00,0.3713
3457.00,0.3718
3456.00,0.3724
3455.00,0.3730
3454.00,0.3736
3453.00,0.3742
3452.00,0.3747
3451.00,0.3753
3450.00,0.3759
3449.00,0.3765
3448.00,0.3771
3447.00,0.3778
3446.00,0.3785
3445.00,0.3792
3444.00,0.3799
3443.00,0.3806
3442.00,0.3813
3441.00,0.3820
3440.00,0.3828
3439.00,0.3835
3438.00,0.3842
3437.00,0.3849
3436.00,0.3856
3435.00,0.3864
3434.00,0.3872
3433.00,0.3879
3432.00,0.3886
3431.00,0.3892
3430.00,0.3899
3429.00,0.3906
3428.00,0.3913
3427.00,0.3920
3426.00,0.3928
3425.00,0.3936
3424.00,0.3944
3423.00,0.3952
3422.00,0.3960
3421.00,0.3967
3420.00,0.3975
3419.00,0.3984
3418.00,0.3992
3417.00,0.4000
3416.00,0.4008
3415.00,0.4016
3414.00,0.4024
3413.00,0.4033
3412.00,0.4042
3411.00,0.4051
3410.00,0.4061
3409.00,0.4069
3408.00,0.4078
3407.00,0.4087
3406.00,0.4096
3405.00,0.4106
3404.00,0.4115
3403.00,0.4124
3402.00,0.4133
3401.00,0.4142
3400.00,0.4152
3399.00,0.4161
3398.00,0.4172
3397.00,0.4183
3396.00,0.4193
3395.00,0.4203
3394.00,0.4212
3393.00,0.4222
3392.00,0.4231
3391.00,0.4241
3390.00,0.4250
3389.00,0.4260
3388.00,0.4270
3387.00,0.4280
3386.00,0.4291
3385.00,0.4302
3384.00,0.4313
3383.00,0.4324
3382.00,0.4334
3381.00,0.4344
3380.00,0.4355
3379.00,0.4366
3378.00,0.4378
3377.00,0.4389
3376.00,0.4401
3375.00,0.4412
3374.00,0.4424
3373.00,0.4436
3372.00,0.4449
3371.00,0.4461
3370.00,0.4473
3369.00,0.4485
3368.00,0.4499
3367.00,0.4512
3366.00,0.4525
3365.00,0.4539
3364.00,0.4552
3363.00,0.4566
3362.00,0.4580
3361.00,0.4595
3360.00,0.4610
3359.00,0.4624
3358.00,0.4639
3357.00,0.4654
3356.00,0.4669
3355.00,0.4685
3354.00,0.4701
3353.00,0.4717
3352.00,0.4731
3351.00,0.4745
3350.00,0.4759
3349.00,0.4774
3348.00,0.4789
3347.00,0.4804
3346.00,0.4818
3345.00,0.4831
3344.00,0.4845
3343.00,0.4857
3342.00,0.4870
3341.00,0.4883
3340.00,0.4895
3339.00,0.4907
3338.00,0.4919
3337.00,0.4929
3336.00,0.4939
3335.00,0.4946
3334.00,0.4953
3333.00,0.4960
3332.00,0.4966
3331.00,0.4973
3330.00,0.4979
3329.00,0.4983
3328.00,0.4987
3327.00,0.4989
3326.00,0.4991
3325.00,0.4992
3324.00,0.4993
3323.00,0.4993
3322.00,0.4993
3321.00,0.4991
3320.00,0.4988
3319.00,0.4984
3318.00,0.4979
3317.00,0.4974
3316.00,0.4969
3315.00,0.4964
3314.00,0.4957
3313.00,0.4950
3312.00,0.4942
3311.00,0.4934
3310.00,0.4926
3309.00,0.4919
3308.00,0.4911
3307.00,0.4903
3306.00,0.4896
3305.00,0.4888
3304.00,0.4880
3303.00,0.4872
3302.00,0.4863
3301.00,0.4856
3300.00,0.4849
3299.00,0.4842
3298.00,0.4836
3297.00,0.4829
3296.00,0.4824
3295.00,0.4818
3294.00,0.4813
3293.00,0.4809
3292.00,0.4804
3291.00,0.4799
3290.00,0.4794
3289.00,0.4791
3288.00,0.4788
3287.00,0.4786
3286.00,0.4785
3285.00,0.4785
3284.00,0.4784
3283.00,0.4784
3282.00,0.4783
3281.00,0.4783
3280.00,0.4784
3279.00,0.4784
3278.00,0.4785
3277.00,0.4787
3276.00,0.4789
3275.00,0.4792
3274.00,0.4795
3273.00,0.4797
3272.00,0.4800
3271.00,0.4803
3270.00,0.4807
3269.00,0.4811
3268.00,0.4815
3267.00,0.4820
3266.00,0.4823
3265.00,0.4828
3264.00,0.4833
3263.00,0.4838
3262.00,0.4844
3261.00,0.4850
3260.00,0.4855
3259.00,0.4860
3258.00,0.4864
3257.00,0.4869
3256.00,0.4874
3255.00,0.4880
3254.00,0.4885
3253.00,0.4890
3252.00,0.4894
3251.00,0.4898
3250.00,0.4903
3249.00,0.4907
3248.00,0.4912
3247.00,0.4916
3246.00,0.4920
3245.00,0.4925
3244.00,0.4929
3243.00,0.4933
3242.00,0.4936
3241.00,0.4939
3240.00,0.4942
3239.00,0.4944
3238.00,0.4946
3237.00,0.4949
3236.00,0.4951
3235.00,0.4953
3234.00,0.4955
3233.00,0.4956
3232.00,0.4957
3231.00,0.4957
3230.00,0.4957
3229.00,0.4958
3228.00,0.4958
3227.00,0.4958
3226.00,0.4957
3225.00,0.4956
3224.00,0.4955
3223.00,0.4954
3222.00,0.4952
3221.00,0.4950
3220.00,0.4948
3219.00,0.4946
3218.00,0.4946
3217.00,0.4946
3216.00,0.4945
3215.00,0.4943
3214.00,0.4942
3213.00,0.4941
3212.00,0.4940
3211.00,0.4938
3210.00,0.4936
3209.00,0.4934
3208.00,0.4932
3207.00,0.4929
3206.00,0.4926
3205.00,0.4924
3204.00,0.4922
3203.00,0.4920
3202.00,0.4917
3201.00,0.4915
3200.00,0.4912
3199.00,0.4909
3198.00,0.4905
3197.00,0.4901
3196.00,0.4898
3195.00,0.4894
3194.00,0.4891
3193.00,0.4888
3192.00,0.4885
3191.00,0.4882
3190.00,0.4877
3189.00,0.4873
3188.00,0.4869
3187.00,0.4864
3186.00,0.4859
3185.00,0.4853
3184.00,0.4848
3183.00,0.4843
3182.00,0.4838
3181.00,0.4832
3180.00,0.4826
3179.00,0.4820
3178.00,0.4814
3177.00,0.4808
3176.00,0.4801
3175.00,0.4794
3174.00,0.4787
3173.00,0.4780
3172.00,0.4773
3171.00,0.4766
3170.00,0.4759
3169.00,0.4751
3168.00,0.4744
3167.00,0.4737
3166.00,0.4730
3165.00,0.4722
3164.00,0.4714
3163.00,0.4706
3162.00,0.4698
3161.00,0.4691
3160.00,0.4683
3159.00,0.4676
3158.00,0.4669
3157.00,0.4660
3156.00,0.4652
3155.00,0.4644
3154.00,0.4638
3153.00,0.4632
3152.00,0.4626
3151.00,0.4620
3150.00,0.4613
3149.00,0.4607
3148.00,0.4601
3147.00,0.4594
3146.00,0.4588
3145.00,0.4583
3144.00,0.4578
3143.00,0.4573
3142.00,0.4568
3141.00,0.4563
3140.00,0.4558
3139.00,0.4553
3138.00,0.4548
3137.00,0.4543
3136.00,0.4538
3135.00,0.4534
3134.00,0.4530
3133.00,0.4527
3132.00,0.4525
3131.00,0.4522
3130.00,0.4520
3129.00,0.4519
3128.00,0.4518
3127.00,0.4519
3126.00,0.4519
3125.00,0.4520
3124.00,0.4521
3123.00,0.4522
3122.00,0.4524
3121.00,0.4526
3120.00,0.4530
3119.00,0.4532
3118.00,0.4535
3117.00,0.4538
3116.00,0.4541
3115.00,0.4546
3114.00,0.4550
3113.00,0.4555
3112.00,0.4560
3111.00,0.4565
3110.00,0.4571
3109.00,0.4578
3108.00,0.4586
3107.00,0.4594
3106.00,0.4602
3105.00,0.4610
3104.00,0.4617
3103.00,0.4624
3102.00,0.4631
3101.00,0.4640
3100.00,0.4650
3099.00,0.4659
3098.00,0.4670
3097.00,0.4681
3096.00,0.4694
3095.00,0.4708
3094.00,0.4723
3093.00,0.4740
3092.00,0.4757
3091.00,0.4777
3090.00,0.4798
3089.00,0.4823
3088.00,0.4849
3087.00,0.4876
3086.00,0.4903
3085.00,0.4931
3084.00,0.4959
3083.00,0.4988
3082.00,0.5018
3081.00,0.5051
3080.00,0.5086
3079.00,0.5123
3078.00,0.5162
3077.00,0.5203
3076.00,0.5244
3075.00,0.5286
3074.00,0.5328
3073.00,0.5370
3072.00,0.5412
3071.00,0.5455
3070.00,0.5498
3069.00,0.5542
3068.00,0.5587
3067.00,0.5631
3066.00,0.5674
3065.00,0.5714
3064.00,0.5753
3063.00,0.5789
3062.00,0.5823
3061.00,0.5855
3060.00,0.5884
3059.00,0.5911
3058.00,0.5936
3057.00,0.5963
3056.00,0.5991
3055.00,0.6022
3054.00,0.6055
3053.00,0.6089
3052.00,0.6124
3051.00,0.6161
3050.00,0.6199
3049.00,0.6240
3048.00,0.6284
3047.00,0.6330
3046.00,0.6378
3045.00,0.6426
3044.00,0.6472
3043.00,0.6518
3042.00,0.6563
3041.00,0.6608
3040.00,0.6653
3039.00,0.6699
3038.00,0.6748
3037.00,0.6799
3036.00,0.6853
3035.00,0.6911
3034.00,0.6974
3033.00,0.7042
3032.00,0.7114
3031.00,0.7190
3030.00,0.7271
3029.00,0.7357
3028.00,0.7445
3027.00,0.7537
3026.00,0.7632
3025.00,0.7731
3024.00,0.7834
3023.00,0.7939
3022.00,0.8048
3021.00,0.8159
3020.00,0.8273
3019.00,0.8389
3018.00,0.8508
3017.00,0.8628
3016.00,0.8748
3015.00,0.8870
3014.00,0.8992
3013.00,0.9117
3012.00,0.9244
3011.00,0.9376
3010.00,0.9514
3009.00,0.9659
3008.00,0.9809
3007.00,0.9966
3006.00,1.0130
3005.00,1.0300
3004.00,1.0475
3003.00,1.0655
3002.00,1.0840
3001.00,1.1030
3000.00,1.1229
2999.00,1.1440
2998.00,1.1670
2997.00,1.1921
2996.00,1.2195
2995.00,1.2494
2994.00,1.2826
2993.00,1.3197
2992.00,1.3615
2991.00,1.4084
2990.00,1.4607
2989.00,1.5191
2988.00,1.5842
2987.00,1.6567
2986.00,1.7371
2985.00,1.8253
2984.00,1.9221
2983.00,2.0297
2982.00,2.1505
2981.00,2.2847
2980.00,2.4290
2979.00,2.5789
2978.00,2.7315
2977.00,2.8830
2976.00,3.0316
2975.00,3.1826
2974.00,3.3447
2973.00,3.5163
2972.00,3.6726
2971.00,3.7741
2970.00,3.8033
2969.00,3.7893
2968.00,3.8029
2967.00,3.8809
2966.00,3.9990
2965.00,4.0697
2964.00,3.9641
2963.00,3.8338
2962.00,3.8052
2961.00,3.9685
2960.00,4.3470
2959.00,4.3351
2958.00,4.1269
2957.00,4.0174
2956.00,4.0687
2955.00,4.0917
2954.00,4.0914
2953.00,4.1577
2952.00,4.1738
2951.00,4.1207
2950.00,4.0677
2949.00,4.1721
2948.00,4.2823
2947.00,4.1596
2946.00,4.1144
2945.00,4.1947
2944.00,4.2482
2943.00,4.2519
2942.00,4.2064
2941.00,4.0632
2940.00,3.9189
2939.00,3.9151
2938.00,4.0065
2937.00,3.9053
2936.00,3.7665
2935.00,3.7432
2934.00,3.8354
2933.00,4.0561
2932.00,4.5025
2931.00,4.7780
2930.00,4.4799
2929.00,4.2709
2928.00,4.3913
2927.00,4.7756
2926.00,5.0893
2925.00,4.8802
2924.00,4.1838
2923.00,3.9185
2922.00,3.8393
2921.00,3.9720
2920.00,4.3657
2919.00,4.7473
2918.00,4.2660
2917.00,3.8965
2916.00,3.7231
2915.00,3.6555
2914.00,3.6315
2913.00,3.6417
2912.00,3.7243
2911.00,3.8915
2910.00,3.9978
2909.00,3.9144
2908.00,3.8192
2907.00,3.8537
2906.00,4.0524
2905.00,4.3696
2904.00,4.4651
2903.00,4.2345
2902.00,4.0795
2901.00,4.0006
2900.00,3.8755
2899.00,3.7363
2898.00,3.6705
2897.00,3.7108
2896.00,3.8599
2895.00,4.0822
2894.00,4.2256
2893.00,4.1773
2892.00,4.0640
2891.00,3.9720
2890.00,3.9002
2889.00,3.8531
2888.00,3.8527
2887.00,3.9004
2886.00,3.9278
2885.00,3.8829
2884.00,3.8611
2883.00,3.9893
2882.00,4.2010
2881.00,4.1544
2880.00,4.0217
2879.00,3.9750
2878.00,4.0085
2877.00,4.0281
2876.00,4.0253
2875.00,4.0414
2874.00,4.0618
2873.00,4.1487
2872.00,4.1798
2871.00,4.2481
2870.00,4.5258
2869.00,4.3644
2868.00,4.1255
2867.00,4.0109
2866.00,4.1326
2865.00,4.2317
2864.00,4.1904
2863.00,4.3149
2862.00,4.6623
2861.00,4.6489
2860.00,4.1701
2859.00,3.8391
2858.00,3.6655
2857.00,3.6074
2856.00,3.6490
2855.00,3.7807
2854.00,3.9156
2853.00,3.9743
2852.00,4.0159
2851.00,4.1451
2850.00,4.2883
2849.00,4.1735
2848.00,4.0321
2847.00,4.0420
2846.00,4.1766
2845.00,4.2286
2844.00,4.1575
2843.00,4.1089
2842.00,4.1198
2841.00,4.0615
2840.00,3.8606
2839.00,3.6190
2838.00,3.3752
2837.00,3.1381
2836.00,2.9211
2835.00,2.7329
2834.00,2.5651
2833.00,2.4082
2832.00,2.2611
2831.00,2.1261
2830.00,2.0048
2829.00,1.8966
2828.00,1.8002
2827.00,1.7145
2826.00,1.6375
2825.00,1.5679
2824.00,1.5044
2823.00,1.4468
2822.00,1.3945
2821.00,1.3464
2820.00,1.3017
2819.00,1.2601
2818.00,1.2216
2817.00,1.1859
2816.00,1.1526
2815.00,1.1214
2814.00,1.0920
2813.00,1.0646
2812.00,1.0390
2811.00,1.0150
2810.00,0.9923
2809.00,0.9707
2808.00,0.9501
2807.00,0.9305
2806.00,0.9118
2805.00,0.8941
2804.00,0.8771
2803.00,0.8609
2802.00,0.8455
2801.00,0.8310
2800.00,0.8173
2799.00,0.8042
2798.00,0.7916
2797.00,0.7794
2796.00,0.7678
2795.00,0.7566
2794.00,0.7459
2793.00,0.7356
2792.00,0.7256
2791.00,0.7158
2790.00,0.7061
2789.00,0.6966
2788.00,0.6873
2787.00,0.6780
2786.00,0.6690
2785.00,0.6601
2784.00,0.6515
2783.00,0.6431
2782.00,0.6351
2781.00,0.6275
2780.00,0.6202
2779.00,0.6133
2778.00,0.6068
2777.00,0.6005
2776.00,0.5945
2775.00,0.5889
2774.00,0.5837
2773.00,0.5788
2772.00,0.5742
2771.00,0.5699
2770.00,0.5660
2769.00,0.5624
2768.00,0.5591
2767.00,0.5562
2766.00,0.5536
2765.00,0.5513
2764.00,0.5494
2763.00,0.5477
2762.00,0.5461
2761.00,0.5446
2760.00,0.5433
2759.00,0.5420
2758.00,0.5408
2757.00,0.5397
2756.00,0.5386
2755.00,0.5376
2754.00,0.5367
2753.00,0.5360
2752.00,0.5355
2751.00,0.5352
2750.00,0.5351
2749.00,0.5351
2748.00,0.5355
2747.00,0.5361
2746.00,0.5369
2745.00,0.5379
2744.00,0.5392
2743.00,0.5408
2742.00,0.5428
2741.00,0.5452
2740.00,0.5480
2739.00,0.5514
2738.00,0.5551
2737.00,0.5593
2736.00,0.5640
2735.00,0.5690
2734.00,0.5743
2733.00,0.5795
2732.00,0.5843
2731.00,0.5884
2730.00,0.5915
2729.00,0.5934
2728.00,0.5943
2727.00,0.5942
2726.00,0.5935
2725.00,0.5921
2724.00,0.5903
2723.00,0.5880
2722.00,0.5853
2721.00,0.5822
2720.00,0.5789
2719.00,0.5753
2718.00,0.5715
2717.00,0.5675
2716.00,0.5632
2715.00,0.5587
2714.00,0.5541
2713.00,0.5497
2712.00,0.5455
2711.00,0.5417
2710.00,0.5382
2709.00,0.5351
2708.00,0.5325
2707.00,0.5303
2706.00,0.5285
2705.00,0.5270
2704.00,0.5258
2703.00,0.5249
2702.00,0.5243
2701.00,0.5239
2700.00,0.5237
2699.00,0.5236
2698.00,0.5237
2697.00,0.5239
2696.00,0.5244
2695.00,0.5251
2694.00,0.5259
2693.00,0.5267
2692.00,0.5276
2691.00,0.5285
2690.00,0.5294
2689.00,0.5303
2688.00,0.5313
2687.00,0.5321
2686.00,0.5329
2685.00,0.5334
2684.00,0.5338
2683.00,0.5342
2682.00,0.5345
2681.00,0.5349
2680.00,0.5353
2679.00,0.5358
2678.00,0.5363
2677.00,0.5368
2676.00,0.5373
2675.00,0.5377
2674.00,0.5381
2673.00,0.5384
2672.00,0.5385
2671.00,0.5385
2670.00,0.5381
