Created as New Dataset,
cm-1,A
4000.00,0.4554
3999.00,0.4551
3998.00,0.4547
3997.00,0.4544
3996.00,0.4541
3995.00,0.4538
3994.00,0.4535
3993.00,0.4532
3992.00,0.4528
3991.00,0.4524
3990.00,0.4520
3989.00,0.4515
3988.00,0.4512
3987.00,0.4509
3986.00,0.4506
3985.00,0.4503
3984.00,0.4499
3983.00,0.4495
3982.00,0.4492
3981.00,0.4488
3980.00,0.4485
3979.00,0.4481
3978.00,0.4477
3977.00,0.4473
3976.00,0.4469
3975.00,0.4465
3974.00,0.4461
3973.00,0.4458
3972.00,0.4455
3971.00,0.4452
3970.00,0.4450
3969.00,0.4447
3968.00,0.4445
3967.00,0.4442
3966.00,0.4439
3965.00,0.4436
3964.00,0.4434
3963.00,0.4432
3962.00,0.4431
3961.00,0.4430
3960.00,0.4428
3959.00,0.4426
3958.00,0.4424
3957.00,0.4422
3956.00,0.4420
3955.00,0.4418
3954.00,0.4417
3953.00,0.4416
3952.00,0.4415
3951.00,0.4414
3950.00,0.4412
3949.00,0.4410
3948.00,0.4409
3947.00,0.4408
3946.00,0.4408
3945.00,0.4407
3944.00,0.4406
3943.00,0.4404
3942.00,0.4403
3941.00,0.4402
3940.00,0.4401
3939.00,0.4400
3938.00,0.4399
3937.00,0.4398
3936.00,0.4398
3935.00,0.4397
3934.00,0.4397
3933.00,0.4396
3932.00,0.4396
3931.00,0.4396
3930.00,0.4396
3929.00,0.4396
3928.00,0.4395
3927.00,0.4394
3926.00,0.4394
3925.00,0.4394
3924.00,0.4394
3923.00,0.4394
3922.00,0.4395
3921.00,0.4395
3920.00,0.4395
3919.00,0.4394
3918.00,0.4393
3917.00,0.4392
3916.00,0.4391
3915.00,0.4390
3914.00,0.4389
3913.00,0.4388
3912.00,0.4388
3911.00,0.4389
3910.00,0.4389
3909.00,0.4389
3908.00,0.4389
3907.00,0.4388
3906.00,0.4387
3905.00,0.4386
3904.00,0.4386
3903.00,0.4385
3902.00,0.4384
3901.00,0.4383
3900.00,0.4383
3899.00,0.4383
3898.00,0.4382
3897.00,0.4381
3896.00,0.4379
3895.00,0.4377
3894.00,0.4376
3893.00,0.4375
3892.00,0.4374
3891.00,0.4374
3890.00,0.4373
3889.00,0.4372
3888.00,0.4371
3887.00,0.4370
3886.00,0.4369
3885.00,0.4368
3884.00,0.4367
3883.00,0.4365
3882.00,0.4363
3881.00,0.4361
3880.00,0.4360
3879.00,0.4360
3878.00,0.4359
3877.00,0.4358
3876.00,0.4358
3875.00,0.4358
3874.00,0.4358
3873.00,0.4357
3872.00,0.4356
3871.00,0.4355
3870.00,0.4355
3869.00,0.4354
3868.00,0.4353
3867.00,0.4350
3866.00,0.4347
3865.00,0.4346
3864.00,0.4345
3863.00,0.4344
3862.00,0.4343
3861.00,0.4342
3860.00,0.4342
3859.00,0.4342
3858.00,0.4342
3857.00,0.4342
3856.00,0.4340
3855.00,0.4338
3854.00,0.4338
3853.00,0.4338
3852.00,0.4336
3851.00,0.4334
3850.00,0.4332
3849.00,0.4331
3848.00,0.4331
3847.00,0.4331
3846.00,0.4331
3845.00,0.4330
3844.00,0.4329
3843.00,0.4328
3842.00,0.4327
3841.00,0.4327
3840.00,0.4327
3839.00,0.4327
3838.00,0.4327
3837.00,0.4327
3836.00,0.4327
3835.00,0.4326
3834.00,0.4325
3833.00,0.4325
3832.00,0.4324
3831.00,0.4323
3830.00,0.4321
3829.00,0.4320
3828.00,0.4319
3827.00,0.4318
3826.00,0.4317
3825.00,0.4316
3824.00,0.4315
3823.00,0.4314
3822.00,0.4314
3821.00,0.4315
3820.00,0.4316
3819.00,0.4314
3818.00,0.4312
3817.00,0.4310
3816.00,0.4308
3815.00,0.4306
3814.00,0.4304
3813.00,0.4300
3812.00,0.4298
3811.00,0.4297
3810.00,0.4295
3809.00,0.4293
3808.00,0.4289
3807.00,0.4287
3806.00,0.4285
3805.00,0.4283
3804.00,0.4281
3803.00,0.4280
3802.00,0.4280
3801.00,0.4281
3800.00,0.4280
3799.00,0.4278
3798.00,0.4275
3797.00,0.4274
3796.00,0.4273
3795.00,0.4272
3794.00,0.4270
3793.00,0.4267
3792.00,0.4265
3791.00,0.4263
3790.00,0.4262
3789.00,0.4261
3788.00,0.4259
3787.00,0.4258
3786.00,0.4256
3785.00,0.4255
3784.00,0.4255
3783.00,0.4254
3782.00,0.4253
3781.00,0.4252
3780.00,0.4251
3779.00,0.4250
3778.00,0.4247
3777.00,0.4245
3776.00,0.4243
3775.00,0.4242
3774.00,0.4241
3773.00,0.4240
3772.00,0.4238
3771.00,0.4237
3770.00,0.4236
3769.00,0.4236
3768.00,0.4235
3767.00,0.4234
3766.00,0.4233
3765.00,0.4232
3764.00,0.4232
3763.00,0.4231
3762.00,0.4229
3761.00,0.4228
3760.00,0.4227
3759.00,0.4226
3758.00,0.4225
3757.00,0.4224
3756.00,0.4224
3755.00,0.4224
3754.00,0.4224
3753.00,0.4223
3752.00,0.4222
3751.00,0.4221
3750.00,0.4220
3749.00,0.4220
3748.00,0.4219
3747.00,0.4218
3746.00,0.4217
3745.00,0.4217
3744.00,0.4216
3743.00,0.4214
3742.00,0.4211
3741.00,0.4208
3740.00,0.4207
3739.00,0.4208
3738.00,0.4209
3737.00,0.4208
3736.00,0.4206
3735.00,0.4204
3734.00,0.4202
3733.00,0.4202
3732.00,0.4203
3731.00,0.4203
3730.00,0.4202
3729.00,0.4200
3728.00,0.4199
3727.00,0.4198
3726.00,0.4198
3725.00,0.4196
3724.00,0.4194
3723.00,0.4193
3722.00,0.4192
3721.00,0.4192
3720.00,0.4191
3719.00,0.4191
3718.00,0.4192
3717.00,0.4192
3716.00,0.4193
3715.00,0.4193
3714.00,0.4194
3713.00,0.4195
3712.00,0.4196
3711.00,0.4196
3710.00,0.4196
3709.00,0.4196
3708.00,0.4197
3707.00,0.4199
3706.00,0.4201
3705.00,0.4202
3704.00,0.4203
3703.00,0.4203
3702.00,0.4204
3701.00,0.4206
3700.00,0.4207
3699.00,0.4208
3698.00,0.4209
3697.00,0.4210
3696.00,0.4211
3695.00,0.4212
3694.00,0.4214
3693.00,0.4216
3692.00,0.4218
3691.00,0.4219
3690.00,0.4221
3689.00,0.4223
3688.00,0.4225
3687.00,0.4227
3686.00,0.4228
3685.00,0.4230
3684.00,0.4231
3683.00,0.4233
3682.00,0.4234
3681.00,0.4236
3680.00,0.4238
3679.00,0.4240
3678.00,0.4243
3677.00,0.4245
3676.00,0.4248
3675.00,0.4251
3674.00,0.4253
3673.00,0.4255
3672.00,0.4256
3671.00,0.4258
3670.00,0.4261
3669.00,0.4264
3668.00,0.4266
3667.00,0.4268
3666.00,0.4270
3665.00,0.4274
3664.00,0.4278
3663.00,0.4282
3662.00,0.4286
3661.00,0.4289
3660.00,0.4292
3659.00,0.4296
3658.00,0.4300
3657.00,0.4305
3656.00,0.4311
3655.00,0.4317
3654.00,0.4322
3653.00,0.4328
3652.00,0.4334
3651.00,0.4341
3650.00,0.4348
3649.00,0.4355
3648.00,0.4362
3647.00,0.4367
3646.00,0.4374
3645.00,0.4381
3644.00,0.4388
3643.00,0.4394
3642.00,0.4401
3641.00,0.4407
3640.00,0.4413
3639.00,0.4421
3638.00,0.4429
3637.00,0.4438
3636.00,0.4446
3635.00,0.4454
3634.00,0.4463
3633.00,0.4472
3632.00,0.4481
3631.00,0.4491
3630.00,0.4505
3629.00,0.4523
3628.00,0.4542
3627.00,0.4559
3626.00,0.4573
3625.00,0.4585
3624.00,0.4595
3623.00,0.4600
3622.00,0.4600
3621.00,0.4595
3620.00,0.4589
3619.00,0.4581
3618.00,0.4574
3617.00,0.4569
3616.00,0.4566
3615.00,0.4565
3614.00,0.4565
3613.00,0.4568
3612.00,0.4572
3611.00,0.4576
3610.00,0.4581
3609.00,0.4587
3608.00,0.4593
3607.00,0.4599
3606.00,0.4603
3605.00,0.4606
3604.00,0.4609
3603.00,0.4611
3602.00,0.4612
3601.00,0.4612
3600.00,0.4611
3599.00,0.4610
3598.00,0.4609
3597.00,0.4608
3596.00,0.4607
3595.00,0.4605
3594.00,0.4603
3593.00,0.4601
3592.00,0.4601
3591.00,0.4601
3590.00,0.4602
3589.00,0.4604
3588.00,0.4607
3587.00,0.4610
3586.00,0.4613
3585.00,0.4616
3584.00,0.4619
3583.00,0.4623
3582.00,0.4627
3581.00,0.4631
3580.00,0.4635
3579.00,0.4640
3578.00,0.4644
3577.00,0.4648
3576.00,0.4653
3575.00,0.4657
3574.00,0.4663
3573.00,0.4671
3572.00,0.4679
3571.00,0.4686
3570.00,0.4692
3569.00,0.4698
3568.00,0.4703
3567.00,0.4710
3566.00,0.4717
3565.00,0.4725
3564.00,0.4733
3563.00,0.4740
3562.00,0.4748
3561.00,0.4756
3560.00,0.4763
3559.00,0.4770
3558.00,0.4778
3557.00,0.4786
3556.00,0.4794
3555.00,0.4803
3554.00,0.4812
3553.00,0.4821
3552.00,0.4830
3551.00,0.4839
3550.00,0.4848
3549.00,0.4857
3548.00,0.4866
3547.00,0.4877
3546.00,0.4887
3545.00,0.4897
3544.00,0.4908
3543.00,0.4917
3542.00,0.4927
3541.00,0.4936
3540.00,0.4946
3539.00,0.4956
3538.00,0.4965
3537.00,0.4974
3536.00,0.4984
3535.00,0.4994
3534.00,0.5003
3533.00,0.5013
3532.00,0.5023
3531.00,0.5032
3530.00,0.5042
3529.00,0.5051
3528.00,0.5062
3527.00,0.5072
3526.00,0.5082
3525.00,0.5092
3524.00,0.5101
3523.00,0.5111
3522.00,0.5121
3521.00,0.5131
3520.00,0.5142
3519.00,0.5153
3518.00,0.5164
3517.00,0.5175
3516.00,0.5185
3515.00,0.5195
3514.00,0.5205
3513.00,0.5216
3512.00,0.5228
3511.00,0.5240
3510.00,0.5251
3509.00,0.5262
3508.00,0.5274
3507.00,0.5286
3506.00,0.5299
3505.00,0.5312
3504.00,0.5324
3503.00,0.5336
3502.00,0.5347
3501.00,0.5359
3500.00,0.5370
3499.00,0.5382
3498.00,0.5394
3497.00,0.5406
3496.00,0.5418
3495.00,0.5429
3494.00,0.5441
3493.00,0.5454
3492.00,0.5467
3491.00,0.5481
3490.00,0.5494
3489.00,0.5507
3488.00,0.5520
3487.00,0.5534
3486.00,0.5547
3485.00,0.5560
3484.00,0.5573
3483.00,0.5585
3482.00,0.5597
3481.00,0.5608
3480.00,0.5620
3479.00,0.5632
3478.00,0.5645
3477.00,0.5658
3476.00,0.5671
3475.00,0.5683
3474.00,0.5695
3473.00,0.5706
3472.00,0.5718
3471.00,0.5729
3470.00,0.5741
3469.00,0.5754
3468.00,0.5766
3467.00,0.5778
3466.00,0.5791
3465.00,0.5804
3464.00,0.5817
3463.00,0.5830
3462.00,0.5843
3461.00,0.5855
3460.00,0.5867
3459.00,0.5880
3458.00,0.5892
3457.00,0.5904
3456.00,0.5917
3455.00,0.5930
3454.00,0.5943
3453.00,0.5957
3452.00,0.5971
3451.00,0.5985
3450.00,0.5998
3449.00,0.6011
3448.00,0.6025
3447.00,0.6039
3446.00,0.6053
3445.00,0.6068
3444.00,0.6083
3443.00,0.6098
3442.00,0.6113
3441.00,0.6128
3440.00,0.6142
3439.00,0.6157
3438.00,0.6171
3437.00,0.6186
3436.00,0.6200
3435.00,0.6214
3434.00,0.6228
3433.00,0.6243
3432.00,0.6258
3431.00,0.6273
3430.00,0.6287
3429.00,0.6302
3428.00,0.6317
3427.00,0.6332
3426.00,0.6348
3425.00,0.6364
3424.00,0.6380
3423.00,0.6395
3422.00,0.6410
3421.00,0.6426
3420.00,0.6442
3419.00,0.6457
3418.00,0.6473
3417.00,0.6489
3416.00,0.6506
3415.00,0.6523
3414.00,0.6542
3413.00,0.6560
3412.00,0.6578
3411.00,0.6595
3410.00,0.6612
3409.00,0.6630
3408.00,0.6647
3407.00,0.6665
3406.00,0.6683
3405.00,0.6701
3404.00,0.6719
3403.00,0.6738
3402.00,0.6758
3401.00,0.6777
3400.00,0.6795
3399.00,0.6812
3398.00,0.6830
3397.00,0.6848
3396.00,0.6868
3395.00,0.6887
3394.00,0.6906
3393.00,0.6924
3392.00,0.6942
3391.00,0.6961
3390.00,0.6979
3389.00,0.6997
3388.00,0.7015
3387.00,0.7033
3386.00,0.7052
3385.00,0.7071
3384.00,0.7091
3383.00,0.7109
3382.00,0.7129
3381.00,0.7148
3380.00,0.7169
3379.00,0.7190
3378.00,0.7211
3377.00,0.7232
3376.00,0.7253
3375.00,0.7273
3374.00,0.7294
3373.00,0.7314
3372.00,0.7336
3371.00,0.7359
3370.00,0.7383
3369.00,0.7407
3368.00,0.7430
3367.00,0.7453
3366.00,0.7476
3365.00,0.7499
3364.00,0.7523
3363.00,0.7547
3362.00,0.7571
3361.00,0.7596
3360.00,0.7621
3359.00,0.7645
3358.00,0.7668
3357.00,0.7691
3356.00,0.7715
3355.00,0.7741
3354.00,0.7767
3353.00,0.7793
3352.00,0.7818
3351.00,0.7843
3350.00,0.7867
3349.00,0.7891
3348.00,0.7916
3347.00,0.7940
3346.00,0.7963
3345.00,0.7985
3344.00,0.8005
3343.00,0.8026
3342.00,0.8046
3341.00,0.8067
3340.00,0.8087
3339.00,0.8106
3338.00,0.8123
3337.00,0.8139
3336.00,0.8153
3335.00,0.8165
3334.00,0.8175
3333.00,0.8184
3332.00,0.8193
3331.00,0.8201
3330.00,0.8209
3329.00,0.8216
3328.00,0.8221
3327.00,0.8223
3326.00,0.8223
3325.00,0.8221
3324.00,0.8217
3323.00,0.8213
3322.00,0.8209
3321.00,0.8204
3320.00,0.8198
3319.00,0.8191
3318.00,0.8183
3317.00,0.8173
3316.00,0.8164
3315.00,0.8154
3314.00,0.8144
3313.00,0.8132
3312.00,0.8121
3311.00,0.8109
3310.00,0.8097
3309.00,0.8085
3308.00,0.8073
3307.00,0.8060
3306.00,0.8046
3305.00,0.8032
3304.00,0.8019
3303.00,0.8006
3302.00,0.7995
3301.00,0.7983
3300.00,0.7971
3299.00,0.7958
3298.00,0.7947
3297.00,0.7938
3296.00,0.7929
3295.00,0.7921
3294.00,0.7913
3293.00,0.7905
3292.00,0.7897
3291.00,0.7890
3290.00,0.7883
3289.00,0.7876
3288.00,0.7870
3287.00,0.7864
3286.00,0.7860
3285.00,0.7856
3284.00,0.7851
3283.00,0.7847
3282.00,0.7844
3281.00,0.7843
3280.00,0.7844
3279.00,0.7845
3278.00,0.7847
3277.00,0.7848
3276.00,0.7849
3275.00,0.7850
3274.00,0.7852
3273.00,0.7855
3272.00,0.7858
3271.00,0.7861
3270.00,0.7864
3269.00,0.7868
3268.00,0.7873
3267.00,0.7878
3266.00,0.7883
3265.00,0.7889
3264.00,0.7894
3263.00,0.7898
3262.00,0.7902
3261.00,0.7907
3260.00,0.7911
3259.00,0.7914
3258.00,0.7915
3257.00,0.7917
3256.00,0.7920
3255.00,0.7923
3254.00,0.7926
3253.00,0.7928
3252.00,0.7930
3251.00,0.7931
3250.00,0.7933
3249.00,0.7935
3248.00,0.7936
3247.00,0.7935
3246.00,0.7932
3245.00,0.7928
3244.00,0.7925
3243.00,0.7921
3242.00,0.7916
3241.00,0.7913
3240.00,0.7909
3239.00,0.7906
3238.00,0.7903
3237.00,0.7899
3236.00,0.7895
3235.00,0.7889
3234.00,0.7881
3233.00,0.7872
3232.00,0.7862
3231.00,0.7851
3230.00,0.7839
3229.00,0.7828
3228.00,0.7817
3227.00,0.7806
3226.00,0.7795
3225.00,0.7783
3224.00,0.7771
3223.00,0.7758
3222.00,0.7744
3221.00,0.7731
3220.00,0.7717
3219.00,0.7703
3218.00,0.7687
3217.00,0.7671
3216.00,0.7655
3215.00,0.7639
3214.00,0.7623
3213.00,0.7607
3212.00,0.7591
3211.00,0.7575
3210.00,0.7558
3209.00,0.7542
3208.00,0.7525
3207.00,0.7509
3206.00,0.7492
3205.00,0.7474
3204.00,0.7457
3203.00,0.7439
3202.00,0.7421
3201.00,0.7403
3200.00,0.7384
3199.00,0.7365
3198.00,0.7348
3197.00,0.7331
3196.00,0.7314
3195.00,0.7297
3194.00,0.7278
3193.00,0.7259
3192.00,0.7239
3191.00,0.7220
3190.00,0.7202
3189.00,0.7184
3188.00,0.7165
3187.00,0.7145
3186.00,0.7125
3185.00,0.7107
3184.00,0.7089
3183.00,0.7071
3182.00,0.7052
3181.00,0.7032
3180.00,0.7012
3179.00,0.6991
3178.00,0.6970
3177.00,0.6948
3176.00,0.6927
3175.00,0.6908
3174.00,0.6889
3173.00,0.6870
3172.00,0.6850
3171.00,0.6830
3170.00,0.6809
3169.00,0.6790
3168.00,0.6771
3167.00,0.6752
3166.00,0.6734
3165.00,0.6715
3164.00,0.6697
3163.00,0.6680
3162.00,0.6662
3161.00,0.6644
3160.00,0.6626
3159.00,0.6608
3158.00,0.6591
3157.00,0.6573
3156.00,0.6556
3155.00,0.6539
3154.00,0.6522
3153.00,0.6505
3152.00,0.6488
3151.00,0.6470
3150.00,0.6454
3149.00,0.6437
3148.00,0.6421
3147.00,0.6405
3146.00,0.6389
3145.00,0.6373
3144.00,0.6358
3143.00,0.6342
3142.00,0.6327
3141.00,0.6312
3140.00,0.6297
3139.00,0.6283
3138.00,0.6269
3137.00,0.6256
3136.00,0.6244
3135.00,0.6233
3134.00,0.6221
3133.00,0.6209
3132.00,0.6197
3131.00,0.6185
3130.00,0.6174
3129.00,0.6165
3128.00,0.6156
3127.00,0.6148
3126.00,0.6140
3125.00,0.6133
3124.00,0.6125
3123.00,0.6118
3122.00,0.6111
3121.00,0.6104
3120.00,0.6098
3119.00,0.6092
3118.00,0.6087
3117.00,0.6082
3116.00,0.6077
3115.00,0.6073
3114.00,0.6068
3113.00,0.6065
3112.00,0.6061
3111.00,0.6059
3110.00,0.6058
3109.00,0.6057
3108.00,0.6056
3107.00,0.6055
3106.00,0.6054
3105.00,0.6053
3104.00,0.6053
3103.00,0.6055
3102.00,0.6056
3101.00,0.6059
3100.00,0.6061
3099.00,0.6063
3098.00,0.6066
3097.00,0.6070
3096.00,0.6075
3095.00,0.6082
3094.00,0.6091
3093.00,0.6101
3092.00,0.6112
3091.00,0.6123
3090.00,0.6134
3089.00,0.6147
3088.00,0.6161
3087.00,0.6177
3086.00,0.6195
3085.00,0.6214
3084.00,0.6234
3083.00,0.6255
3082.00,0.6278
3081.00,0.6302
3080.00,0.6328
3079.00,0.6355
3078.00,0.6382
3077.00,0.6409
3076.00,0.6438
3075.00,0.6467
3074.00,0.6497
3073.00,0.6527
3072.00,0.6557
3071.00,0.6587
3070.00,0.6618
3069.00,0.6648
3068.00,0.6679
3067.00,0.6710
3066.00,0.6741
3065.00,0.6771
3064.00,0.6799
3063.00,0.6826
3062.00,0.6852
3061.00,0.6877
3060.00,0.6899
3059.00,0.6920
3058.00,0.6940
3057.00,0.6961
3056.00,0.6983
3055.00,0.7005
3054.00,0.7028
3053.00,0.7051
3052.00,0.7075
3051.00,0.7101
3050.00,0.7129
3049.00,0.7160
3048.00,0.7192
3047.00,0.7226
3046.00,0.7260
3045.00,0.7296
3044.00,0.7333
3043.00,0.7369
3042.00,0.7407
3041.00,0.7446
3040.00,0.7487
3039.00,0.7529
3038.00,0.7573
3037.00,0.7618
3036.00,0.7665
3035.00,0.7714
3034.00,0.7767
3033.00,0.7823
3032.00,0.7882
3031.00,0.7944
3030.00,0.8010
3029.00,0.8079
3028.00,0.8152
3027.00,0.8228
3026.00,0.8305
3025.00,0.8383
3024.00,0.8464
3023.00,0.8548
3022.00,0.8637
3021.00,0.8730
3020.00,0.8829
3019.00,0.8931
3018.00,0.9035
3017.00,0.9143
3016.00,0.9253
3015.00,0.9366
3014.00,0.9480
3013.00,0.9599
3012.00,0.9722
3011.00,0.9852
3010.00,0.9990
3009.00,1.0135
3008.00,1.0289
3007.00,1.0450
3006.00,1.0620
3005.00,1.0799
3004.00,1.0988
3003.00,1.1188
3002.00,1.1399
3001.00,1.1618
3000.00,1.1848
2999.00,1.2090
2998.00,1.2350
2997.00,1.2628
2996.00,1.2927
2995.00,1.3250
2994.00,1.3601
2993.00,1.3982
2992.00,1.4397
2991.00,1.4847
2990.00,1.5338
2989.00,1.5875
2988.00,1.6465
2987.00,1.7117
2986.00,1.7842
2985.00,1.8651
2984.00,1.9550
2983.00,2.0546
2982.00,2.1648
2981.00,2.2857
2980.00,2.4169
2979.00,2.5584
2978.00,2.7122
2977.00,2.8815
2976.00,3.0702
2975.00,3.2800
2974.00,3.5108
2973.00,3.7595
2972.00,4.0148
2971.00,4.3612
2970.00,4.6656
2969.00,4.5160
2968.00,4.3564
2967.00,4.2014
2966.00,4.0750
2965.00,3.9401
2964.00,3.8754
2963.00,3.8759
2962.00,3.9362
2961.00,4.1212
2960.00,4.2692
2959.00,4.0980
2958.00,3.9215
2957.00,3.8564
2956.00,3.9892
2955.00,4.2887
2954.00,4.2748
2953.00,4.0796
2952.00,4.0672
2951.00,4.3643
2950.00,4.3429
2949.00,4.1557
2948.00,4.2787
2947.00,4.6407
2946.00,4.5058
2945.00,4.3022
2944.00,4.4859
2943.00,4.6977
2942.00,4.2832
2941.00,4.0801
2940.00,4.0718
2939.00,4.1533
2938.00,4.1294
2937.00,3.9968
2936.00,3.9069
2935.00,3.8705
2934.00,3.9073
2933.00,4.0023
2932.00,4.1604
2931.00,4.3489
2930.00,4.3025
2929.00,4.0253
2928.00,3.7986
2927.00,3.6907
2926.00,3.6841
2925.00,3.7469
2924.00,3.8660
2923.00,4.0222
2922.00,4.2654
2921.00,4.6442
2920.00,4.6148
2919.00,4.3098
2918.00,4.1611
2917.00,4.2524
2916.00,4.4243
2915.00,4.3571
2914.00,4.1710
2913.00,4.0010
2912.00,3.8917
2911.00,3.8202
2910.00,3.7957
2909.00,3.8156
2908.00,3.8740
2907.00,3.9354
2906.00,3.9306
2905.00,3.8569
2904.00,3.8105
2903.00,3.8318
2902.00,3.9984
2901.00,4.4301
2900.00,4.7664
2899.00,4.7698
2898.00,4.5315
2897.00,4.3405
2896.00,4.1064
2895.00,3.9988
2894.00,4.1688
2893.00,4.5227
2892.00,4.8680
2891.00,4.7116
2890.00,4.2522
2889.00,3.9964
2888.00,3.8460
2887.00,3.8704
2886.00,4.1579
2885.00,4.3892
2884.00,4.1337
2883.00,3.9134
2882.00,3.8594
2881.00,3.8706
2880.00,3.8440
2879.00,3.9885
2878.00,4.4146
2877.00,4.4170
2876.00,4.1746
2875.00,4.0350
2874.00,4.2207
2873.00,4.4170
2872.00,4.2653
2871.00,4.1409
2870.00,3.9846
2869.00,3.9144
2868.00,3.9458
2867.00,4.1367
2866.00,4.5635
2865.00,4.6386
2864.00,4.2352
2863.00,4.0062
2862.00,3.9411
2861.00,3.8762
2860.00,3.8163
2859.00,3.8313
2858.00,3.9899
2857.00,4.3678
2856.00,4.3958
2855.00,4.0742
2854.00,3.8661
2853.00,3.8359
2852.00,3.8851
2851.00,3.9542
2850.00,4.0157
2849.00,3.9446
2848.00,3.8396
2847.00,3.7909
2846.00,3.8070
2845.00,3.8432
2844.00,3.8575
2843.00,3.8712
2842.00,3.8674
2841.00,3.7845
2840.00,3.6620
2839.00,3.5472
2838.00,3.4207
2837.00,3.2435
2836.00,3.0382
2835.00,2.8383
2834.00,2.6525
2833.00,2.4832
2832.00,2.3315
2831.00,2.1973
2830.00,2.0792
2829.00,1.9743
2828.00,1.8807
2827.00,1.7968
2826.00,1.7216
2825.00,1.6540
2824.00,1.5931
2823.00,1.5378
2822.00,1.4872
2821.00,1.4407
2820.00,1.3979
2819.00,1.3582
2818.00,1.3214
2817.00,1.2870
2816.00,1.2550
2815.00,1.2251
2814.00,1.1969
2813.00,1.1702
2812.00,1.1450
2811.00,1.1212
2810.00,1.0985
2809.00,1.0768
2808.00,1.0559
2807.00,1.0359
2806.00,1.0169
2805.00,0.9987
2804.00,0.9814
2803.00,0.9649
2802.00,0.9492
2801.00,0.9341
2800.00,0.9198
2799.00,0.9061
2798.00,0.8931
2797.00,0.8805
2796.00,0.8683
2795.00,0.8566
2794.00,0.8453
2793.00,0.8345
2792.00,0.8241
2791.00,0.8140
2790.00,0.8040
2789.00,0.7942
2788.00,0.7846
2787.00,0.7753
2786.00,0.7662
2785.00,0.7572
2784.00,0.7485
2783.00,0.7400
2782.00,0.7319
2781.00,0.7241
2780.00,0.7166
2779.00,0.7095
2778.00,0.7027
2777.00,0.6962
2776.00,0.6900
2775.00,0.6842
2774.00,0.6787
2773.00,0.6736
2772.00,0.6689
2771.00,0.6646
2770.00,0.6606
2769.00,0.6568
2768.00,0.6533
2767.00,0.6502
2766.00,0.6474
2765.00,0.6449
2764.00,0.6427
2763.00,0.6407
2762.00,0.6389
2761.00,0.6373
2760.00,0.6359
2759.00,0.6346
2758.00,0.6334
2757.00,0.6323
2756.00,0.6312
2755.00,0.6302
2754.00,0.6293
2753.00,0.6286
2752.00,0.6280
2751.00,0.6275
2750.00,0.6273
2749.00,0.6274
2748.00,0.6277
2747.00,0.6281
2746.00,0.6288
2745.00,0.6297
2744.00,0.6308
2743.00,0.6322
2742.00,0.6338
2741.00,0.6358
2740.00,0.6382
2739.00,0.6409
2738.00,0.6441
2737.00,0.6476
2736.00,0.6516
2735.00,0.6558
2734.00,0.6602
2733.00,0.6646
2732.00,0.6685
2731.00,0.6716
2730.00,0.6737
2729.00,0.6747
2728.00,0.6748
2727.00,0.6740
2726.00,0.6725
2725.00,0.6706
2724.00,0.6684
2723.00,0.6660
2722.00,0.6634
2721.00,0.6606
2720.00,0.6575
2719.00,0.6543
2718.00,0.6508
2717.00,0.6471
2716.00,0.6432
2715.00,0.6392
2714.00,0.6351
2713.00,0.6312
2712.00,0.6274
2711.00,0.6238
2710.00,0.6206
2709.00,0.6177
2708.00,0.6153
2707.00,0.6133
2706.00,0.6115
2705.00,0.6100
2704.00,0.6088
2703.00,0.6078
2702.00,0.6072
2701.00,0.6069
2700.00,0.6068
2699.00,0.6069
2698.00,0.6071
2697.00,0.6076
2696.00,0.6081
2695.00,0.6088
2694.00,0.6097
2693.00,0.6106
2692.00,0.6116
2691.00,0.6127
2690.00,0.6136
2689.00,0.6145
2688.00,0.6152
2687.00,0.6158
2686.00,0.6163
2685.00,0.6167
2684.00,0.6171
2683.00,0.6172
2682.00,0.6173
2681.00,0.6173
2680.00,0.6172
2679.00,0.6171
2678.00,0.6171
2677.00,0.6171
2676.00,0.6172
2675.00,0.6172
2674.00,0.6172
2673.00,0.6170
2672.00,0.6167
2671.00,0.6162
2670.00,0.6155
