Created as New Dataset,
cm-1,A
4000.00,0.3813
3999.00,0.3810
3998.00,0.3806
3997.00,0.3802
3996.00,0.3799
3995.00,0.3796
3994.00,0.3793
3993.00,0.3790
3992.00,0.3786
3991.00,0.3782
3990.00,0.3778
3989.00,0.3773
3988.00,0.3767
3987.00,0.3762
3986.00,0.3756
3985.00,0.3751
3984.00,0.3747
3983.00,0.3742
3982.00,0.3738
3981.00,0.3733
3980.00,0.3729
3979.00,0.3725
3978.00,0.3721
3977.00,0.3717
3976.00,0.3713
3975.00,0.3709
3974.00,0.3706
3973.00,0.3704
3972.00,0.3702
3971.00,0.3700
3970.00,0.3698
3969.00,0.3695
3968.00,0.3693
3967.00,0.3691
3966.00,0.3689
3965.00,0.3687
3964.00,0.3686
3963.00,0.3685
3962.00,0.3683
3961.00,0.3681
3960.00,0.3679
3959.00,0.3678
3958.00,0.3676
3957.00,0.3675
3956.00,0.3674
3955.00,0.3673
3954.00,0.3672
3953.00,0.3671
3952.00,0.3670
3951.00,0.3669
3950.00,0.3667
3949.00,0.3665
3948.00,0.3664
3947.00,0.3663
3946.00,0.3662
3945.00,0.3661
3944.00,0.3659
3943.00,0.3657
3942.00,0.3655
3941.00,0.3654
3940.00,0.3653
3939.00,0.3652
3938.00,0.3652
3937.00,0.3652
3936.00,0.3651
3935.00,0.3650
3934.00,0.3649
3933.00,0.3648
3932.00,0.3647
3931.00,0.3647
3930.00,0.3648
3929.00,0.3649
3928.00,0.3649
3927.00,0.3649
3926.00,0.3649
3925.00,0.3649
3924.00,0.3649
3923.00,0.3649
3922.00,0.3650
3921.00,0.3650
3920.00,0.3650
3919.00,0.3649
3918.00,0.3648
3917.00,0.3647
3916.00,0.3647
3915.00,0.3647
3914.00,0.3646
3913.00,0.3645
3912.00,0.3643
3911.00,0.3641
3910.00,0.3639
3909.00,0.3638
3908.00,0.3638
3907.00,0.3638
3906.00,0.3638
3905.00,0.3638
3904.00,0.3639
3903.00,0.3639
3902.00,0.3639
3901.00,0.3639
3900.00,0.3638
3899.00,0.3637
3898.00,0.3635
3897.00,0.3633
3896.00,0.3631
3895.00,0.3630
3894.00,0.3629
3893.00,0.3628
3892.00,0.3627
3891.00,0.3626
3890.00,0.3627
3889.00,0.3628
3888.00,0.3628
3887.00,0.3629
3886.00,0.3629
3885.00,0.3629
3884.00,0.3630
3883.00,0.3630
3882.00,0.3630
3881.00,0.3628
3880.00,0.3627
3879.00,0.3625
3878.00,0.3623
3877.00,0.3621
3876.00,0.3619
3875.00,0.3617
3874.00,0.3616
3873.00,0.3616
3872.00,0.3616
3871.00,0.3615
3870.00,0.3615
3869.00,0.3615
3868.00,0.3615
3867.00,0.3614
3866.00,0.3613
3865.00,0.3610
3864.00,0.3607
3863.00,0.3605
3862.00,0.3603
3861.00,0.3600
3860.00,0.3599
3859.00,0.3599
3858.00,0.3599
3857.00,0.3600
3856.00,0.3601
3855.00,0.3601
3854.00,0.3602
3853.00,0.3604
3852.00,0.3605
3851.00,0.3605
3850.00,0.3603
3849.00,0.3600
3848.00,0.3597
3847.00,0.3594
3846.00,0.3592
3845.00,0.3590
3844.00,0.3589
3843.00,0.3589
3842.00,0.3590
3841.00,0.3592
3840.00,0.3594
3839.00,0.3594
3838.00,0.3594
3837.00,0.3594
3836.00,0.3593
3835.00,0.3591
3834.00,0.3589
3833.00,0.3587
3832.00,0.3584
3831.00,0.3581
3830.00,0.3578
3829.00,0.3576
3828.00,0.3573
3827.00,0.3571
3826.00,0.3569
3825.00,0.3569
3824.00,0.3570
3823.00,0.3570
3822.00,0.3570
3821.00,0.3570
3820.00,0.3570
3819.00,0.3569
3818.00,0.3568
3817.00,0.3566
3816.00,0.3564
3815.00,0.3561
3814.00,0.3558
3813.00,0.3554
3812.00,0.3551
3811.00,0.3548
3810.00,0.3547
3809.00,0.3545
3808.00,0.3544
3807.00,0.3542
3806.00,0.3542
3805.00,0.3543
3804.00,0.3544
3803.00,0.3544
3802.00,0.3543
3801.00,0.3540
3800.00,0.3538
3799.00,0.3536
3798.00,0.3534
3797.00,0.3532
3796.00,0.3529
3795.00,0.3525
3794.00,0.3521
3793.00,0.3518
3792.00,0.3515
3791.00,0.3513
3790.00,0.3511
3789.00,0.3509
3788.00,0.3507
3787.00,0.3505
3786.00,0.3503
3785.00,0.3501
3784.00,0.3500
3783.00,0.3499
3782.00,0.3498
3781.00,0.3497
3780.00,0.3496
3779.00,0.3493
3778.00,0.3491
3777.00,0.3489
3776.00,0.3487
3775.00,0.3486
3774.00,0.3485
3773.00,0.3484
3772.00,0.3482
3771.00,0.3481
3770.00,0.3480
3769.00,0.3481
3768.00,0.3481
3767.00,0.3482
3766.00,0.3482
3765.00,0.3481
3764.00,0.3480
3763.00,0.3479
3762.00,0.3477
3761.00,0.3475
3760.00,0.3474
3759.00,0.3473
3758.00,0.3471
3757.00,0.3470
3756.00,0.3469
3755.00,0.3468
3754.00,0.3468
3753.00,0.3469
3752.00,0.3469
3751.00,0.3469
3750.00,0.3470
3749.00,0.3470
3748.00,0.3470
3747.00,0.3470
3746.00,0.3469
3745.00,0.3465
3744.00,0.3462
3743.00,0.3459
3742.00,0.3456
3741.00,0.3454
3740.00,0.3453
3739.00,0.3452
3738.00,0.3451
3737.00,0.3450
3736.00,0.3449
3735.00,0.3449
3734.00,0.3449
3733.00,0.3448
3732.00,0.3447
3731.00,0.3446
3730.00,0.3444
3729.00,0.3442
3728.00,0.3440
3727.00,0.3438
3726.00,0.3436
3725.00,0.3434
3724.00,0.3432
3723.00,0.3429
3722.00,0.3427
3721.00,0.3426
3720.00,0.3424
3719.00,0.3422
3718.00,0.3420
3717.00,0.3418
3716.00,0.3417
3715.00,0.3416
3714.00,0.3416
3713.00,0.3417
3712.00,0.3418
3711.00,0.3418
3710.00,0.3418
3709.00,0.3418
3708.00,0.3417
3707.00,0.3415
3706.00,0.3414
3705.00,0.3413
3704.00,0.3412
3703.00,0.3411
3702.00,0.3411
3701.00,0.3410
3700.00,0.3411
3699.00,0.3411
3698.00,0.3411
3697.00,0.3411
3696.00,0.3411
3695.00,0.3413
3694.00,0.3414
3693.00,0.3416
3692.00,0.3418
3691.00,0.3420
3690.00,0.3422
3689.00,0.3424
3688.00,0.3425
3687.00,0.3425
3686.00,0.3424
3685.00,0.3422
3684.00,0.3420
3683.00,0.3418
3682.00,0.3417
3681.00,0.3416
3680.00,0.3416
3679.00,0.3417
3678.00,0.3419
3677.00,0.3420
3676.00,0.3422
3675.00,0.3424
3674.00,0.3426
3673.00,0.3427
3672.00,0.3427
3671.00,0.3427
3670.00,0.3426
3669.00,0.3425
3668.00,0.3423
3667.00,0.3422
3666.00,0.3420
3665.00,0.3418
3664.00,0.3417
3663.00,0.3417
3662.00,0.3417
3661.00,0.3419
3660.00,0.3421
3659.00,0.3423
3658.00,0.3425
3657.00,0.3427
3656.00,0.3430
3655.00,0.3433
3654.00,0.3437
3653.00,0.3442
3652.00,0.3445
3651.00,0.3448
3650.00,0.3451
3649.00,0.3454
3648.00,0.3456
3647.00,0.3456
3646.00,0.3455
3645.00,0.3454
3644.00,0.3452
3643.00,0.3450
3642.00,0.3449
3641.00,0.3449
3640.00,0.3449
3639.00,0.3449
3638.00,0.3450
3637.00,0.3452
3636.00,0.3454
3635.00,0.3457
3634.00,0.3460
3633.00,0.3464
3632.00,0.3467
3631.00,0.3471
3630.00,0.3473
3629.00,0.3476
3628.00,0.3478
3627.00,0.3480
3626.00,0.3480
3625.00,0.3480
3624.00,0.3480
3623.00,0.3480
3622.00,0.3480
3621.00,0.3481
3620.00,0.3482
3619.00,0.3484
3618.00,0.3485
3617.00,0.3487
3616.00,0.3488
3615.00,0.3489
3614.00,0.3490
3613.00,0.3490
3612.00,0.3490
3611.00,0.3490
3610.00,0.3489
3609.00,0.3489
3608.00,0.3487
3607.00,0.3485
3606.00,0.3483
3605.00,0.3480
3604.00,0.3476
3603.00,0.3472
3602.00,0.3467
3601.00,0.3461
3600.00,0.3456
3599.00,0.3450
3598.00,0.3445
3597.00,0.3440
3596.00,0.3434
3595.00,0.3429
3594.00,0.3425
3593.00,0.3422
3592.00,0.3420
3591.00,0.3419
3590.00,0.3417
3589.00,0.3415
3588.00,0.3414
3587.00,0.3414
3586.00,0.3413
3585.00,0.3412
3584.00,0.3411
3583.00,0.3410
3582.00,0.3408
3581.00,0.3408
3580.00,0.3408
3579.00,0.3409
3578.00,0.3409
3577.00,0.3410
3576.00,0.3410
3575.00,0.3411
3574.00,0.3412
3573.00,0.3413
3572.00,0.3416
3571.00,0.3418
3570.00,0.3420
3569.00,0.3423
3568.00,0.3425
3567.00,0.3428
3566.00,0.3430
3565.00,0.3433
3564.00,0.3434
3563.00,0.3436
3562.00,0.3437
3561.00,0.3437
3560.00,0.3438
3559.00,0.3439
3558.00,0.3440
3557.00,0.3442
3556.00,0.3445
3555.00,0.3448
3554.00,0.3451
3553.00,0.3454
3552.00,0.3457
3551.00,0.3460
3550.00,0.3463
3549.00,0.3467
3548.00,0.3471
3547.00,0.3475
3546.00,0.3479
3545.00,0.3482
3544.00,0.3485
3543.00,0.3489
3542.00,0.3492
3541.00,0.3495
3540.00,0.3499
3539.00,0.3502
3538.00,0.3506
3537.00,0.3509
3536.00,0.3513
3535.00,0.3517
3534.00,0.3521
3533.00,0.3524
3532.00,0.3528
3531.00,0.3531
3530.00,0.3535
3529.00,0.3539
3528.00,0.3543
3527.00,0.3547
3526.00,0.3551
3525.00,0.3556
3524.00,0.3560
3523.00,0.3564
3522.00,0.3568
3521.00,0.3572
3520.00,0.3576
3519.00,0.3580
3518.00,0.3584
3517.00,0.3588
3516.00,0.3592
3515.00,0.3596
3514.00,0.3601
3513.00,0.3605
3512.00,0.3609
3511.00,0.3613
3510.00,0.3617
3509.00,0.3621
3508.00,0.3624
3507.00,0.3628
3506.00,0.3632
3505.00,0.3635
3504.00,0.3639
3503.00,0.3643
3502.00,0.3647
3501.00,0.3651
3500.00,0.3655
3499.00,0.3659
3498.00,0.3663
3497.00,0.3667
3496.00,0.3672
3495.00,0.3676
3494.00,0.3680
3493.00,0.3685
3492.00,0.3690
3491.00,0.3696
3490.00,0.3701
3489.00,0.3706
3488.00,0.3711
3487.00,0.3716
3486.00,0.3721
3485.00,0.3726
3484.00,0.3732
3483.00,0.3738
3482.00,0.3744
3481.00,0.3749
3480.00,0.3754
3479.00,0.3759
3478.00,0.3765
3477.00,0.3771
3476.00,0.3777
3475.00,0.3782
3474.00,0.3788
3473.00,0.3794
3472.00,0.3800
3471.00,0.3806
3470.00,0.3813
3469.00,0.3820
3468.00,0.3827
3467.00,0.3834
3466.00,0.3842
3465.00,0.3849
3464.00,0.3855
3463.00,0.3862
3462.00,0.3868
3461.00,0.3875
3460.00,0.3881
3459.00,0.3887
3458.00,0.3894
3457.00,0.3900
3456.00,0.3906
3455.00,0.3912
3454.00,0.3918
3453.00,0.3925
3452.00,0.3931
3451.00,0.3938
3450.00,0.3945
3449.00,0.3952
3448.00,0.3958
3447.00,0.3964
3446.00,0.3971
3445.00,0.3979
3444.00,0.3987
3443.00,0.3995
3442.00,0.4003
3441.00,0.4010
3440.00,0.4018
3439.00,0.4025
3438.00,0.4033
3437.00,0.4042
3436.00,0.4050
3435.00,0.4058
3434.00,0.4066
3433.00,0.4075
3432.00,0.4084
3431.00,0.4094
3430.00,0.4104
3429.00,0.4115
3428.00,0.4126
3427.00,0.4138
3426.00,0.4150
3425.00,0.4163
3424.00,0.4176
3423.00,0.4189
3422.00,0.4202
3421.00,0.4217
3420.00,0.4232
3419.00,0.4248
3418.00,0.4265
3417.00,0.4283
3416.00,0.4301
3415.00,0.4319
3414.00,0.4337
3413.00,0.4356
3412.00,0.4375
3411.00,0.4395
3410.00,0.4416
3409.00,0.4437
3408.00,0.4459
3407.00,0.4482
3406.00,0.4506
3405.00,0.4530
3404.00,0.4555
3403.00,0.4581
3402.00,0.4607
3401.00,0.4634
3400.00,0.4663
3399.00,0.4692
3398.00,0.4723
3397.00,0.4754
3396.00,0.4786
3395.00,0.4819
3394.00,0.4854
3393.00,0.4890
3392.00,0.4928
3391.00,0.4967
3390.00,0.5008
3389.00,0.5050
3388.00,0.5094
3387.00,0.5139
3386.00,0.5187
3385.00,0.5235
3384.00,0.5284
3383.00,0.5335
3382.00,0.5386
3381.00,0.5440
3380.00,0.5494
3379.00,0.5550
3378.00,0.5607
3377.00,0.5666
3376.00,0.5726
3375.00,0.5787
3374.00,0.5849
3373.00,0.5912
3372.00,0.5977
3371.00,0.6044
3370.00,0.6114
3369.00,0.6186
3368.00,0.6259
3367.00,0.6333
3366.00,0.6410
3365.00,0.6489
3364.00,0.6572
3363.00,0.6657
3362.00,0.6745
3361.00,0.6835
3360.00,0.6927
3359.00,0.7023
3358.00,0.7124
3357.00,0.7228
3356.00,0.7336
3355.00,0.7447
3354.00,0.7560
3353.00,0.7675
3352.00,0.7793
3351.00,0.7915
3350.00,0.8040
3349.00,0.8171
3348.00,0.8305
3347.00,0.8440
3346.00,0.8577
3345.00,0.8717
3344.00,0.8859
3343.00,0.9003
3342.00,0.9148
3341.00,0.9293
3340.00,0.9438
3339.00,0.9582
3338.00,0.9727
3337.00,0.9872
3336.00,1.0014
3335.00,1.0151
3334.00,1.0282
3333.00,1.0408
3332.00,1.0530
3331.00,1.0647
3330.00,1.0757
3329.00,1.0858
3328.00,1.0950
3327.00,1.1032
3326.00,1.1103
3325.00,1.1164
3324.00,1.1213
3323.00,1.1249
3322.00,1.1274
3321.00,1.1289
3320.00,1.1294
3319.00,1.1290
3318.00,1.1276
3317.00,1.1253
3316.00,1.1222
3315.00,1.1184
3314.00,1.1143
3313.00,1.1099
3312.00,1.1053
3311.00,1.1005
3310.00,1.0955
3309.00,1.0905
3308.00,1.0855
3307.00,1.0805
3306.00,1.0755
3305.00,1.0705
3304.00,1.0656
3303.00,1.0607
3302.00,1.0558
3301.00,1.0507
3300.00,1.0452
3299.00,1.0393
3298.00,1.0333
3297.00,1.0274
3296.00,1.0217
3295.00,1.0158
3294.00,1.0097
3293.00,1.0030
3292.00,0.9957
3291.00,0.9880
3290.00,0.9799
3289.00,0.9717
3288.00,0.9634
3287.00,0.9548
3286.00,0.9461
3285.00,0.9373
3284.00,0.9283
3283.00,0.9193
3282.00,0.9103
3281.00,0.9013
3280.00,0.8923
3279.00,0.8833
3278.00,0.8745
3277.00,0.8657
3276.00,0.8568
3275.00,0.8478
3274.00,0.8388
3273.00,0.8298
3272.00,0.8209
3271.00,0.8121
3270.00,0.8033
3269.00,0.7946
3268.00,0.7860
3267.00,0.7773
3266.00,0.7687
3265.00,0.7602
3264.00,0.7517
3263.00,0.7433
3262.00,0.7350
3261.00,0.7270
3260.00,0.7190
3259.00,0.7113
3258.00,0.7036
3257.00,0.6962
3256.00,0.6890
3255.00,0.6820
3254.00,0.6753
3253.00,0.6689
3252.00,0.6628
3251.00,0.6568
3250.00,0.6511
3249.00,0.6456
3248.00,0.6404
3247.00,0.6354
3246.00,0.6307
3245.00,0.6261
3244.00,0.6217
3243.00,0.6175
3242.00,0.6136
3241.00,0.6099
3240.00,0.6064
3239.00,0.6031
3238.00,0.5998
3237.00,0.5967
3236.00,0.5938
3235.00,0.5910
3234.00,0.5885
3233.00,0.5862
3232.00,0.5841
3231.00,0.5820
3230.00,0.5800
3229.00,0.5781
3228.00,0.5763
3227.00,0.5745
3226.00,0.5729
3225.00,0.5714
3224.00,0.5702
3223.00,0.5691
3222.00,0.5681
3221.00,0.5671
3220.00,0.5663
3219.00,0.5656
3218.00,0.5651
3217.00,0.5646
3216.00,0.5642
3215.00,0.5638
3214.00,0.5636
3213.00,0.5635
3212.00,0.5634
3211.00,0.5635
3210.00,0.5637
3209.00,0.5639
3208.00,0.5641
3207.00,0.5644
3206.00,0.5647
3205.00,0.5650
3204.00,0.5654
3203.00,0.5659
3202.00,0.5664
3201.00,0.5669
3200.00,0.5674
3199.00,0.5678
3198.00,0.5682
3197.00,0.5686
3196.00,0.5691
3195.00,0.5694
3194.00,0.5697
3193.00,0.5699
3192.00,0.5701
3191.00,0.5702
3190.00,0.5703
3189.00,0.5705
3188.00,0.5706
3187.00,0.5706
3186.00,0.5706
3185.00,0.5706
3184.00,0.5705
3183.00,0.5704
3182.00,0.5701
3181.00,0.5698
3180.00,0.5695
3179.00,0.5691
3178.00,0.5686
3177.00,0.5680
3176.00,0.5674
3175.00,0.5667
3174.00,0.5659
3173.00,0.5650
3172.00,0.5641
3171.00,0.5632
3170.00,0.5624
3169.00,0.5616
3168.00,0.5607
3167.00,0.5599
3166.00,0.5589
3165.00,0.5579
3164.00,0.5569
3163.00,0.5559
3162.00,0.5549
3161.00,0.5540
3160.00,0.5531
3159.00,0.5523
3158.00,0.5515
3157.00,0.5508
3156.00,0.5502
3155.00,0.5496
3154.00,0.5489
3153.00,0.5482
3152.00,0.5477
3151.00,0.5473
3150.00,0.5471
3149.00,0.5469
3148.00,0.5466
3147.00,0.5464
3146.00,0.5463
3145.00,0.5462
3144.00,0.5462
3143.00,0.5463
3142.00,0.5464
3141.00,0.5465
3140.00,0.5468
3139.00,0.5471
3138.00,0.5475
3137.00,0.5480
3136.00,0.5485
3135.00,0.5490
3134.00,0.5496
3133.00,0.5503
3132.00,0.5511
3131.00,0.5520
3130.00,0.5529
3129.00,0.5538
3128.00,0.5547
3127.00,0.5556
3126.00,0.5565
3125.00,0.5573
3124.00,0.5581
3123.00,0.5589
3122.00,0.5596
3121.00,0.5604
3120.00,0.5610
3119.00,0.5617
3118.00,0.5623
3117.00,0.5628
3116.00,0.5632
3115.00,0.5635
3114.00,0.5637
3113.00,0.5640
3112.00,0.5642
3111.00,0.5643
3110.00,0.5643
3109.00,0.5642
3108.00,0.5640
3107.00,0.5638
3106.00,0.5635
3105.00,0.5632
3104.00,0.5630
3103.00,0.5628
3102.00,0.5626
3101.00,0.5624
3100.00,0.5622
3099.00,0.5620
3098.00,0.5618
3097.00,0.5616
3096.00,0.5614
3095.00,0.5613
3094.00,0.5613
3093.00,0.5614
3092.00,0.5617
3091.00,0.5620
3090.00,0.5624
3089.00,0.5629
3088.00,0.5636
3087.00,0.5643
3086.00,0.5651
3085.00,0.5661
3084.00,0.5672
3083.00,0.5683
3082.00,0.5696
3081.00,0.5709
3080.00,0.5723
3079.00,0.5737
3078.00,0.5752
3077.00,0.5768
3076.00,0.5785
3075.00,0.5803
3074.00,0.5821
3073.00,0.5840
3072.00,0.5859
3071.00,0.5876
3070.00,0.5894
3069.00,0.5914
3068.00,0.5934
3067.00,0.5954
3066.00,0.5975
3065.00,0.5995
3064.00,0.6015
3063.00,0.6035
3062.00,0.6055
3061.00,0.6076
3060.00,0.6097
3059.00,0.6118
3058.00,0.6139
3057.00,0.6160
3056.00,0.6182
3055.00,0.6206
3054.00,0.6230
3053.00,0.6255
3052.00,0.6282
3051.00,0.6309
3050.00,0.6338
3049.00,0.6367
3048.00,0.6397
3047.00,0.6428
3046.00,0.6460
3045.00,0.6495
3044.00,0.6531
3043.00,0.6568
3042.00,0.6608
3041.00,0.6649
3040.00,0.6690
3039.00,0.6733
3038.00,0.6776
3037.00,0.6820
3036.00,0.6865
3035.00,0.6911
3034.00,0.6957
3033.00,0.7003
3032.00,0.7052
3031.00,0.7101
3030.00,0.7152
3029.00,0.7202
3028.00,0.7253
3027.00,0.7303
3026.00,0.7354
3025.00,0.7408
3024.00,0.7464
3023.00,0.7524
3022.00,0.7588
3021.00,0.7657
3020.00,0.7731
3019.00,0.7809
3018.00,0.7893
3017.00,0.7982
3016.00,0.8077
3015.00,0.8178
3014.00,0.8284
3013.00,0.8397
3012.00,0.8515
3011.00,0.8636
3010.00,0.8760
3009.00,0.8887
3008.00,0.9018
3007.00,0.9154
3006.00,0.9294
3005.00,0.9437
3004.00,0.9584
3003.00,0.9737
3002.00,0.9899
3001.00,1.0071
3000.00,1.0256
2999.00,1.0453
2998.00,1.0666
2997.00,1.0898
2996.00,1.1154
2995.00,1.1437
2994.00,1.1750
2993.00,1.2093
2992.00,1.2468
2991.00,1.2880
2990.00,1.3336
2989.00,1.3844
2988.00,1.4410
2987.00,1.5035
2986.00,1.5724
2985.00,1.6478
2984.00,1.7304
2983.00,1.8210
2982.00,1.9214
2981.00,2.0331
2980.00,2.1579
2979.00,2.2982
2978.00,2.4579
2977.00,2.6401
2976.00,2.8446
2975.00,3.0666
2974.00,3.2970
2973.00,3.5193
2972.00,3.7153
2971.00,3.9329
2970.00,4.0538
2969.00,3.9167
2968.00,3.7879
2967.00,3.7714
2966.00,3.8900
2965.00,4.0229
2964.00,4.1326
2963.00,4.2170
2962.00,4.1354
2961.00,4.0033
2960.00,3.8640
2959.00,3.7795
2958.00,3.7831
2957.00,3.8679
2956.00,4.0873
2955.00,4.4304
2954.00,4.3900
2953.00,4.1795
2952.00,4.0805
2951.00,4.1162
2950.00,4.0817
2949.00,3.9927
2948.00,4.0175
2947.00,4.1531
2946.00,4.4240
2945.00,4.5302
2944.00,4.2428
2943.00,4.0182
2942.00,3.9427
2941.00,3.9668
2940.00,3.9556
2939.00,3.9026
2938.00,3.8796
2937.00,3.9324
2936.00,4.0837
2935.00,4.3382
2934.00,4.5304
2933.00,4.2584
2932.00,3.9813
2931.00,3.8685
2930.00,3.8932
2929.00,4.0074
2928.00,4.1243
2927.00,4.1140
2926.00,4.0577
2925.00,4.0934
2924.00,4.1993
2923.00,4.1607
2922.00,4.0088
2921.00,3.9372
2920.00,3.9703
2919.00,4.0578
2918.00,4.1655
2917.00,4.2454
2916.00,4.1927
2915.00,4.0609
2914.00,4.0190
2913.00,4.1208
2912.00,4.2383
2911.00,4.2272
2910.00,4.2114
2909.00,4.3838
2908.00,4.7410
2907.00,4.6441
2906.00,4.4399
2905.00,4.4784
2904.00,4.5586
2903.00,4.5216
2902.00,4.2155
2901.00,3.9490
2900.00,3.8057
2899.00,3.8528
2898.00,4.2067
2897.00,4.3637
2896.00,4.0813
2895.00,3.9063
2894.00,3.9860
2893.00,4.2033
2892.00,4.4391
2891.00,4.8328
2890.00,4.5693
2889.00,4.3139
2888.00,4.1751
2887.00,4.1285
2886.00,4.0669
2885.00,4.0197
2884.00,4.0247
2883.00,4.0166
2882.00,4.0115
2881.00,4.0125
2880.00,4.0614
2879.00,4.0506
2878.00,4.0823
2877.00,4.3207
2876.00,4.2368
2875.00,3.9232
2874.00,3.7223
2873.00,3.6888
2872.00,3.7183
2871.00,3.7497
2870.00,3.8705
2869.00,4.0797
2868.00,4.2565
2867.00,4.2187
2866.00,4.2458
2865.00,4.5051
2864.00,4.5602
2863.00,4.3003
2862.00,4.1324
2861.00,4.1612
2860.00,4.1791
2859.00,4.0814
2858.00,4.0108
2857.00,4.0071
2856.00,4.0388
2855.00,3.9778
2854.00,3.8983
2853.00,3.9380
2852.00,4.0892
2851.00,4.3092
2850.00,4.6094
2849.00,4.6985
2848.00,4.4845
2847.00,4.3262
2846.00,4.2749
2845.00,4.0531
2844.00,3.7705
2843.00,3.5974
2842.00,3.5375
2841.00,3.5930
2840.00,3.7494
2839.00,3.7646
2838.00,3.5043
2837.00,3.2212
2836.00,2.9899
2835.00,2.7847
2834.00,2.5936
2833.00,2.4194
2832.00,2.2619
2831.00,2.1216
2830.00,1.9978
2829.00,1.8887
2828.00,1.7928
2827.00,1.7087
2826.00,1.6349
2825.00,1.5697
2824.00,1.5118
2823.00,1.4597
2822.00,1.4123
2821.00,1.3686
2820.00,1.3283
2819.00,1.2911
2818.00,1.2568
2817.00,1.2250
2816.00,1.1951
2815.00,1.1670
2814.00,1.1403
2813.00,1.1148
2812.00,1.0905
2811.00,1.0675
2810.00,1.0457
2809.00,1.0250
2808.00,1.0051
2807.00,0.9859
2806.00,0.9677
2805.00,0.9503
2804.00,0.9336
2803.00,0.9177
2802.00,0.9024
2801.00,0.8879
2800.00,0.8740
2799.00,0.8606
2798.00,0.8476
2797.00,0.8350
2796.00,0.8228
2795.00,0.8109
2794.00,0.7992
2793.00,0.7878
2792.00,0.7765
2791.00,0.7654
2790.00,0.7546
2789.00,0.7442
2788.00,0.7339
2787.00,0.7237
2786.00,0.7137
2785.00,0.7038
2784.00,0.6943
2783.00,0.6850
2782.00,0.6761
2781.00,0.6676
2780.00,0.6595
2779.00,0.6518
2778.00,0.6444
2777.00,0.6373
2776.00,0.6306
2775.00,0.6244
2774.00,0.6185
2773.00,0.6130
2772.00,0.6080
2771.00,0.6032
2770.00,0.5989
2769.00,0.5949
2768.00,0.5915
2767.00,0.5884
2766.00,0.5857
2765.00,0.5832
2764.00,0.5809
2763.00,0.5789
2762.00,0.5773
2761.00,0.5758
2760.00,0.5745
2759.00,0.5733
2758.00,0.5722
2757.00,0.5711
2756.00,0.5700
2755.00,0.5691
2754.00,0.5683
2753.00,0.5677
2752.00,0.5673
2751.00,0.5671
2750.00,0.5672
2749.00,0.5674
2748.00,0.5678
2747.00,0.5683
2746.00,0.5690
2745.00,0.5700
2744.00,0.5713
2743.00,0.5729
2742.00,0.5748
2741.00,0.5770
2740.00,0.5794
2739.00,0.5822
2738.00,0.5851
2737.00,0.5884
2736.00,0.5920
2735.00,0.5958
2734.00,0.5998
2733.00,0.6039
2732.00,0.6077
2731.00,0.6110
2730.00,0.6137
2729.00,0.6157
2728.00,0.6170
2727.00,0.6178
2726.00,0.6179
2725.00,0.6175
2724.00,0.6165
2723.00,0.6152
2722.00,0.6135
2721.00,0.6115
2720.00,0.6089
2719.00,0.6059
2718.00,0.6025
2717.00,0.5987
2716.00,0.5947
2715.00,0.5904
2714.00,0.5861
2713.00,0.5819
2712.00,0.5782
2711.00,0.5748
2710.00,0.5717
2709.00,0.5690
2708.00,0.5667
2707.00,0.5648
2706.00,0.5633
2705.00,0.5620
2704.00,0.5610
2703.00,0.5603
2702.00,0.5598
2701.00,0.5596
2700.00,0.5596
2699.00,0.5598
2698.00,0.5602
2697.00,0.5609
2696.00,0.5617
2695.00,0.5628
2694.00,0.5639
2693.00,0.5651
2692.00,0.5663
2691.00,0.5675
2690.00,0.5687
2689.00,0.5699
2688.00,0.5710
2687.00,0.5719
2686.00,0.5726
2685.00,0.5732
2684.00,0.5737
2683.00,0.5742
2682.00,0.5745
2681.00,0.5747
2680.00,0.5748
2679.00,0.5747
2678.00,0.5747
2677.00,0.5748
2676.00,0.5749
2675.00,0.5750
2674.00,0.5749
2673.00,0.5747
2672.00,0.5744
2671.00,0.5738
2670.00,0.5729
