Created as New Dataset,
cm-1,A
4000.00,0.3861
3999.00,0.3858
3998.00,0.3856
3997.00,0.3853
3996.00,0.3849
3995.00,0.3846
3994.00,0.3842
3993.00,0.3839
3992.00,0.3835
3991.00,0.3830
3990.00,0.3825
3989.00,0.3820
3988.00,0.3815
3987.00,0.3810
3986.00,0.3805
3985.00,0.3800
3984.00,0.3794
3983.00,0.3788
3982.00,0.3783
3981.00,0.3778
3980.00,0.3773
3979.00,0.3768
3978.00,0.3764
3977.00,0.3760
3976.00,0.3755
3975.00,0.3751
3974.00,0.3747
3973.00,0.3743
3972.00,0.3740
3971.00,0.3736
3970.00,0.3733
3969.00,0.3730
3968.00,0.3728
3967.00,0.3726
3966.00,0.3723
3965.00,0.3721
3964.00,0.3717
3963.00,0.3714
3962.00,0.3710
3961.00,0.3706
3960.00,0.3702
3959.00,0.3698
3958.00,0.3695
3957.00,0.3691
3956.00,0.3688
3955.00,0.3685
3954.00,0.3682
3953.00,0.3679
3952.00,0.3676
3951.00,0.3673
3950.00,0.3671
3949.00,0.3667
3948.00,0.3663
3947.00,0.3658
3946.00,0.3654
3945.00,0.3651
3944.00,0.3649
3943.00,0.3648
3942.00,0.3647
3941.00,0.3645
3940.00,0.3644
3939.00,0.3643
3938.00,0.3642
3937.00,0.3641
3936.00,0.3641
3935.00,0.3640
3934.00,0.3640
3933.00,0.3639
3932.00,0.3639
3931.00,0.3640
3930.00,0.3640
3929.00,0.3641
3928.00,0.3641
3927.00,0.3641
3926.00,0.3640
3925.00,0.3639
3924.00,0.3638
3923.00,0.3637
3922.00,0.3636
3921.00,0.3635
3920.00,0.3634
3919.00,0.3633
3918.00,0.3632
3917.00,0.3631
3916.00,0.3629
3915.00,0.3627
3914.00,0.3626
3913.00,0.3623
3912.00,0.3621
3911.00,0.3618
3910.00,0.3615
3909.00,0.3612
3908.00,0.3610
3907.00,0.3609
3906.00,0.3608
3905.00,0.3608
3904.00,0.3609
3903.00,0.3609
3902.00,0.3611
3901.00,0.3614
3900.00,0.3616
3899.00,0.3616
3898.00,0.3614
3897.00,0.3611
3896.00,0.3608
3895.00,0.3605
3894.00,0.3601
3893.00,0.3598
3892.00,0.3595
3891.00,0.3592
3890.00,0.3589
3889.00,0.3587
3888.00,0.3587
3887.00,0.3587
3886.00,0.3587
3885.00,0.3585
3884.00,0.3581
3883.00,0.3580
3882.00,0.3580
3881.00,0.3581
3880.00,0.3580
3879.00,0.3576
3878.00,0.3572
3877.00,0.3570
3876.00,0.3570
3875.00,0.3570
3874.00,0.3570
3873.00,0.3568
3872.00,0.3568
3871.00,0.3568
3870.00,0.3568
3869.00,0.3567
3868.00,0.3566
3867.00,0.3565
3866.00,0.3564
3865.00,0.3563
3864.00,0.3561
3863.00,0.3557
3862.00,0.3554
3861.00,0.3552
3860.00,0.3550
3859.00,0.3547
3858.00,0.3543
3857.00,0.3537
3856.00,0.3532
3855.00,0.3531
3854.00,0.3535
3853.00,0.3539
3852.00,0.3538
3851.00,0.3537
3850.00,0.3540
3849.00,0.3542
3848.00,0.3542
3847.00,0.3539
3846.00,0.3535
3845.00,0.3532
3844.00,0.3529
3843.00,0.3527
3842.00,0.3525
3841.00,0.3524
3840.00,0.3524
3839.00,0.3525
3838.00,0.3526
3837.00,0.3526
3836.00,0.3527
3835.00,0.3527
3834.00,0.3528
3833.00,0.3527
3832.00,0.3524
3831.00,0.3520
3830.00,0.3516
3829.00,0.3513
3828.00,0.3511
3827.00,0.3510
3826.00,0.3507
3825.00,0.3504
3824.00,0.3501
3823.00,0.3499
3822.00,0.3499
3821.00,0.3499
3820.00,0.3496
3819.00,0.3493
3818.00,0.3492
3817.00,0.3492
3816.00,0.3492
3815.00,0.3489
3814.00,0.3486
3813.00,0.3484
3812.00,0.3483
3811.00,0.3482
3810.00,0.3479
3809.00,0.3476
3808.00,0.3474
3807.00,0.3471
3806.00,0.3469
3805.00,0.3466
3804.00,0.3465
3803.00,0.3465
3802.00,0.3465
3801.00,0.3463
3800.00,0.3460
3799.00,0.3458
3798.00,0.3457
3797.00,0.3458
3796.00,0.3456
3795.00,0.3452
3794.00,0.3447
3793.00,0.3443
3792.00,0.3439
3791.00,0.3435
3790.00,0.3431
3789.00,0.3427
3788.00,0.3423
3787.00,0.3420
3786.00,0.3418
3785.00,0.3415
3784.00,0.3412
3783.00,0.3411
3782.00,0.3410
3781.00,0.3410
3780.00,0.3411
3779.00,0.3410
3778.00,0.3409
3777.00,0.3407
3776.00,0.3407
3775.00,0.3408
3774.00,0.3408
3773.00,0.3407
3772.00,0.3407
3771.00,0.3406
3770.00,0.3405
3769.00,0.3403
3768.00,0.3401
3767.00,0.3399
3766.00,0.3398
3765.00,0.3396
3764.00,0.3394
3763.00,0.3392
3762.00,0.3389
3761.00,0.3387
3760.00,0.3385
3759.00,0.3382
3758.00,0.3379
3757.00,0.3376
3756.00,0.3373
3755.00,0.3371
3754.00,0.3368
3753.00,0.3365
3752.00,0.3363
3751.00,0.3363
3750.00,0.3363
3749.00,0.3363
3748.00,0.3363
3747.00,0.3366
3746.00,0.3369
3745.00,0.3372
3744.00,0.3372
3743.00,0.3369
3742.00,0.3365
3741.00,0.3365
3740.00,0.3365
3739.00,0.3364
3738.00,0.3361
3737.00,0.3358
3736.00,0.3357
3735.00,0.3356
3734.00,0.3356
3733.00,0.3355
3732.00,0.3354
3731.00,0.3351
3730.00,0.3348
3729.00,0.3344
3728.00,0.3341
3727.00,0.3337
3726.00,0.3334
3725.00,0.3331
3724.00,0.3329
3723.00,0.3327
3722.00,0.3325
3721.00,0.3323
3720.00,0.3320
3719.00,0.3317
3718.00,0.3315
3717.00,0.3313
3716.00,0.3311
3715.00,0.3311
3714.00,0.3312
3713.00,0.3314
3712.00,0.3316
3711.00,0.3318
3710.00,0.3319
3709.00,0.3320
3708.00,0.3321
3707.00,0.3321
3706.00,0.3320
3705.00,0.3319
3704.00,0.3318
3703.00,0.3317
3702.00,0.3317
3701.00,0.3316
3700.00,0.3315
3699.00,0.3315
3698.00,0.3316
3697.00,0.3316
3696.00,0.3315
3695.00,0.3313
3694.00,0.3312
3693.00,0.3311
3692.00,0.3311
3691.00,0.3311
3690.00,0.3312
3689.00,0.3314
3688.00,0.3316
3687.00,0.3318
3686.00,0.3321
3685.00,0.3323
3684.00,0.3325
3683.00,0.3324
3682.00,0.3323
3681.00,0.3321
3680.00,0.3318
3679.00,0.3316
3678.00,0.3315
3677.00,0.3317
3676.00,0.3322
3675.00,0.3325
3674.00,0.3326
3673.00,0.3327
3672.00,0.3330
3671.00,0.3333
3670.00,0.3334
3669.00,0.3333
3668.00,0.3331
3667.00,0.3330
3666.00,0.3331
3665.00,0.3332
3664.00,0.3331
3663.00,0.3329
3662.00,0.3328
3661.00,0.3327
3660.00,0.3327
3659.00,0.3329
3658.00,0.3331
3657.00,0.3335
3656.00,0.3339
3655.00,0.3342
3654.00,0.3345
3653.00,0.3349
3652.00,0.3354
3651.00,0.3359
3650.00,0.3366
3649.00,0.3372
3648.00,0.3378
3647.00,0.3384
3646.00,0.3389
3645.00,0.3394
3644.00,0.3398
3643.00,0.3400
3642.00,0.3401
3641.00,0.3403
3640.00,0.3404
3639.00,0.3406
3638.00,0.3409
3637.00,0.3413
3636.00,0.3418
3635.00,0.3423
3634.00,0.3428
3633.00,0.3431
3632.00,0.3435
3631.00,0.3441
3630.00,0.3451
3629.00,0.3463
3628.00,0.3473
3627.00,0.3479
3626.00,0.3485
3625.00,0.3488
3624.00,0.3489
3623.00,0.3485
3622.00,0.3479
3621.00,0.3470
3620.00,0.3461
3619.00,0.3452
3618.00,0.3442
3617.00,0.3435
3616.00,0.3430
3615.00,0.3428
3614.00,0.3427
3613.00,0.3427
3612.00,0.3427
3611.00,0.3428
3610.00,0.3431
3609.00,0.3434
3608.00,0.3438
3607.00,0.3439
3606.00,0.3439
3605.00,0.3437
3604.00,0.3434
3603.00,0.3427
3602.00,0.3418
3601.00,0.3407
3600.00,0.3395
3599.00,0.3383
3598.00,0.3371
3597.00,0.3358
3596.00,0.3346
3595.00,0.3335
3594.00,0.3323
3593.00,0.3312
3592.00,0.3302
3591.00,0.3293
3590.00,0.3286
3589.00,0.3280
3588.00,0.3275
3587.00,0.3271
3586.00,0.3267
3585.00,0.3264
3584.00,0.3261
3583.00,0.3258
3582.00,0.3254
3581.00,0.3250
3580.00,0.3247
3579.00,0.3243
3578.00,0.3240
3577.00,0.3238
3576.00,0.3236
3575.00,0.3235
3574.00,0.3234
3573.00,0.3233
3572.00,0.3231
3571.00,0.3230
3570.00,0.3229
3569.00,0.3229
3568.00,0.3229
3567.00,0.3231
3566.00,0.3232
3565.00,0.3234
3564.00,0.3236
3563.00,0.3238
3562.00,0.3239
3561.00,0.3241
3560.00,0.3242
3559.00,0.3243
3558.00,0.3245
3557.00,0.3247
3556.00,0.3250
3555.00,0.3254
3554.00,0.3257
3553.00,0.3261
3552.00,0.3265
3551.00,0.3268
3550.00,0.3272
3549.00,0.3276
3548.00,0.3281
3547.00,0.3285
3546.00,0.3290
3545.00,0.3294
3544.00,0.3298
3543.00,0.3302
3542.00,0.3306
3541.00,0.3310
3540.00,0.3314
3539.00,0.3317
3538.00,0.3321
3537.00,0.3325
3536.00,0.3330
3535.00,0.3335
3534.00,0.3340
3533.00,0.3345
3532.00,0.3351
3531.00,0.3356
3530.00,0.3362
3529.00,0.3368
3528.00,0.3374
3527.00,0.3381
3526.00,0.3388
3525.00,0.3395
3524.00,0.3402
3523.00,0.3409
3522.00,0.3415
3521.00,0.3421
3520.00,0.3427
3519.00,0.3434
3518.00,0.3441
3517.00,0.3447
3516.00,0.3453
3515.00,0.3459
3514.00,0.3465
3513.00,0.3471
3512.00,0.3477
3511.00,0.3484
3510.00,0.3490
3509.00,0.3497
3508.00,0.3504
3507.00,0.3511
3506.00,0.3519
3505.00,0.3526
3504.00,0.3534
3503.00,0.3541
3502.00,0.3550
3501.00,0.3559
3500.00,0.3568
3499.00,0.3577
3498.00,0.3586
3497.00,0.3595
3496.00,0.3605
3495.00,0.3614
3494.00,0.3624
3493.00,0.3634
3492.00,0.3644
3491.00,0.3654
3490.00,0.3664
3489.00,0.3675
3488.00,0.3685
3487.00,0.3696
3486.00,0.3706
3485.00,0.3716
3484.00,0.3726
3483.00,0.3736
3482.00,0.3745
3481.00,0.3754
3480.00,0.3763
3479.00,0.3771
3478.00,0.3780
3477.00,0.3788
3476.00,0.3796
3475.00,0.3805
3474.00,0.3813
3473.00,0.3822
3472.00,0.3832
3471.00,0.3843
3470.00,0.3854
3469.00,0.3866
3468.00,0.3877
3467.00,0.3888
3466.00,0.3899
3465.00,0.3910
3464.00,0.3922
3463.00,0.3934
3462.00,0.3946
3461.00,0.3958
3460.00,0.3970
3459.00,0.3983
3458.00,0.3995
3457.00,0.4008
3456.00,0.4020
3455.00,0.4032
3454.00,0.4045
3453.00,0.4057
3452.00,0.4070
3451.00,0.4084
3450.00,0.4098
3449.00,0.4114
3448.00,0.4130
3447.00,0.4148
3446.00,0.4165
3445.00,0.4184
3444.00,0.4202
3443.00,0.4221
3442.00,0.4241
3441.00,0.4261
3440.00,0.4280
3439.00,0.4298
3438.00,0.4316
3437.00,0.4332
3436.00,0.4348
3435.00,0.4362
3434.00,0.4375
3433.00,0.4389
3432.00,0.4402
3431.00,0.4416
3430.00,0.4430
3429.00,0.4444
3428.00,0.4457
3427.00,0.4470
3426.00,0.4483
3425.00,0.4496
3424.00,0.4509
3423.00,0.4522
3422.00,0.4536
3421.00,0.4549
3420.00,0.4563
3419.00,0.4576
3418.00,0.4590
3417.00,0.4605
3416.00,0.4621
3415.00,0.4637
3414.00,0.4654
3413.00,0.4670
3412.00,0.4686
3411.00,0.4702
3410.00,0.4718
3409.00,0.4734
3408.00,0.4752
3407.00,0.4769
3406.00,0.4787
3405.00,0.4806
3404.00,0.4825
3403.00,0.4844
3402.00,0.4864
3401.00,0.4883
3400.00,0.4903
3399.00,0.4922
3398.00,0.4942
3397.00,0.4961
3396.00,0.4980
3395.00,0.4999
3394.00,0.5018
3393.00,0.5036
3392.00,0.5054
3391.00,0.5072
3390.00,0.5090
3389.00,0.5108
3388.00,0.5126
3387.00,0.5145
3386.00,0.5162
3385.00,0.5181
3384.00,0.5200
3383.00,0.5220
3382.00,0.5240
3381.00,0.5260
3380.00,0.5280
3379.00,0.5301
3378.00,0.5323
3377.00,0.5345
3376.00,0.5368
3375.00,0.5390
3374.00,0.5414
3373.00,0.5437
3372.00,0.5461
3371.00,0.5486
3370.00,0.5510
3369.00,0.5535
3368.00,0.5559
3367.00,0.5583
3366.00,0.5608
3365.00,0.5633
3364.00,0.5658
3363.00,0.5684
3362.00,0.5708
3361.00,0.5732
3360.00,0.5757
3359.00,0.5781
3358.00,0.5806
3357.00,0.5830
3356.00,0.5855
3355.00,0.5879
3354.00,0.5903
3353.00,0.5926
3352.00,0.5949
3351.00,0.5970
3350.00,0.5991
3349.00,0.6010
3348.00,0.6028
3347.00,0.6045
3346.00,0.6062
3345.00,0.6079
3344.00,0.6095
3343.00,0.6110
3342.00,0.6124
3341.00,0.6137
3340.00,0.6148
3339.00,0.6157
3338.00,0.6165
3337.00,0.6172
3336.00,0.6178
3335.00,0.6182
3334.00,0.6184
3333.00,0.6186
3332.00,0.6185
3331.00,0.6184
3330.00,0.6183
3329.00,0.6180
3328.00,0.6176
3327.00,0.6171
3326.00,0.6165
3325.00,0.6158
3324.00,0.6151
3323.00,0.6142
3322.00,0.6133
3321.00,0.6122
3320.00,0.6110
3319.00,0.6098
3318.00,0.6087
3317.00,0.6077
3316.00,0.6066
3315.00,0.6054
3314.00,0.6042
3313.00,0.6030
3312.00,0.6020
3311.00,0.6010
3310.00,0.6000
3309.00,0.5990
3308.00,0.5980
3307.00,0.5971
3306.00,0.5962
3305.00,0.5955
3304.00,0.5948
3303.00,0.5941
3302.00,0.5934
3301.00,0.5927
3300.00,0.5921
3299.00,0.5915
3298.00,0.5910
3297.00,0.5905
3296.00,0.5900
3295.00,0.5896
3294.00,0.5893
3293.00,0.5890
3292.00,0.5889
3291.00,0.5888
3290.00,0.5887
3289.00,0.5887
3288.00,0.5887
3287.00,0.5888
3286.00,0.5890
3285.00,0.5893
3284.00,0.5895
3283.00,0.5897
3282.00,0.5899
3281.00,0.5902
3280.00,0.5906
3279.00,0.5910
3278.00,0.5915
3277.00,0.5921
3276.00,0.5926
3275.00,0.5931
3274.00,0.5937
3273.00,0.5941
3272.00,0.5946
3271.00,0.5950
3270.00,0.5955
3269.00,0.5960
3268.00,0.5965
3267.00,0.5970
3266.00,0.5974
3265.00,0.5977
3264.00,0.5980
3263.00,0.5982
3262.00,0.5985
3261.00,0.5988
3260.00,0.5990
3259.00,0.5992
3258.00,0.5993
3257.00,0.5993
3256.00,0.5993
3255.00,0.5993
3254.00,0.5993
3253.00,0.5993
3252.00,0.5992
3251.00,0.5989
3250.00,0.5986
3249.00,0.5982
3248.00,0.5977
3247.00,0.5973
3246.00,0.5968
3245.00,0.5963
3244.00,0.5957
3243.00,0.5950
3242.00,0.5942
3241.00,0.5935
3240.00,0.5927
3239.00,0.5918
3238.00,0.5909
3237.00,0.5899
3236.00,0.5888
3235.00,0.5877
3234.00,0.5866
3233.00,0.5854
3232.00,0.5841
3231.00,0.5827
3230.00,0.5813
3229.00,0.5798
3228.00,0.5783
3227.00,0.5767
3226.00,0.5752
3225.00,0.5738
3224.00,0.5723
3223.00,0.5708
3222.00,0.5692
3221.00,0.5677
3220.00,0.5661
3219.00,0.5646
3218.00,0.5630
3217.00,0.5614
3216.00,0.5599
3215.00,0.5585
3214.00,0.5571
3213.00,0.5557
3212.00,0.5543
3211.00,0.5529
3210.00,0.5514
3209.00,0.5499
3208.00,0.5484
3207.00,0.5469
3206.00,0.5455
3205.00,0.5441
3204.00,0.5428
3203.00,0.5416
3202.00,0.5403
3201.00,0.5390
3200.00,0.5377
3199.00,0.5364
3198.00,0.5351
3197.00,0.5337
3196.00,0.5324
3195.00,0.5311
3194.00,0.5297
3193.00,0.5283
3192.00,0.5269
3191.00,0.5256
3190.00,0.5243
3189.00,0.5230
3188.00,0.5216
3187.00,0.5202
3186.00,0.5188
3185.00,0.5173
3184.00,0.5159
3183.00,0.5145
3182.00,0.5131
3181.00,0.5117
3180.00,0.5103
3179.00,0.5089
3178.00,0.5074
3177.00,0.5059
3176.00,0.5044
3175.00,0.5029
3174.00,0.5014
3173.00,0.4999
3172.00,0.4985
3171.00,0.4970
3170.00,0.4956
3169.00,0.4941
3168.00,0.4928
3167.00,0.4915
3166.00,0.4902
3165.00,0.4890
3164.00,0.4877
3163.00,0.4865
3162.00,0.4852
3161.00,0.4840
3160.00,0.4829
3159.00,0.4817
3158.00,0.4806
3157.00,0.4794
3156.00,0.4783
3155.00,0.4772
3154.00,0.4761
3153.00,0.4751
3152.00,0.4741
3151.00,0.4731
3150.00,0.4722
3149.00,0.4713
3148.00,0.4704
3147.00,0.4694
3146.00,0.4685
3145.00,0.4676
3144.00,0.4668
3143.00,0.4659
3142.00,0.4650
3141.00,0.4642
3140.00,0.4634
3139.00,0.4627
3138.00,0.4620
3137.00,0.4614
3136.00,0.4608
3135.00,0.4602
3134.00,0.4596
3133.00,0.4592
3132.00,0.4587
3131.00,0.4582
3130.00,0.4577
3129.00,0.4573
3128.00,0.4569
3127.00,0.4565
3126.00,0.4561
3125.00,0.4558
3124.00,0.4555
3123.00,0.4552
3122.00,0.4549
3121.00,0.4548
3120.00,0.4547
3119.00,0.4547
3118.00,0.4548
3117.00,0.4548
3116.00,0.4550
3115.00,0.4552
3114.00,0.4555
3113.00,0.4559
3112.00,0.4564
3111.00,0.4569
3110.00,0.4575
3109.00,0.4583
3108.00,0.4592
3107.00,0.4603
3106.00,0.4616
3105.00,0.4630
3104.00,0.4645
3103.00,0.4660
3102.00,0.4675
3101.00,0.4690
3100.00,0.4704
3099.00,0.4717
3098.00,0.4729
3097.00,0.4739
3096.00,0.4749
3095.00,0.4759
3094.00,0.4768
3093.00,0.4779
3092.00,0.4790
3091.00,0.4804
3090.00,0.4819
3089.00,0.4836
3088.00,0.4855
3087.00,0.4877
3086.00,0.4902
3085.00,0.4929
3084.00,0.4959
3083.00,0.4991
3082.00,0.5024
3081.00,0.5058
3080.00,0.5093
3079.00,0.5129
3078.00,0.5166
3077.00,0.5204
3076.00,0.5242
3075.00,0.5279
3074.00,0.5316
3073.00,0.5352
3072.00,0.5387
3071.00,0.5422
3070.00,0.5457
3069.00,0.5492
3068.00,0.5527
3067.00,0.5563
3066.00,0.5601
3065.00,0.5639
3064.00,0.5680
3063.00,0.5720
3062.00,0.5761
3061.00,0.5800
3060.00,0.5837
3059.00,0.5871
3058.00,0.5905
3057.00,0.5938
3056.00,0.5972
3055.00,0.6006
3054.00,0.6042
3053.00,0.6080
3052.00,0.6120
3051.00,0.6163
3050.00,0.6210
3049.00,0.6259
3048.00,0.6311
3047.00,0.6364
3046.00,0.6416
3045.00,0.6464
3044.00,0.6508
3043.00,0.6548
3042.00,0.6587
3041.00,0.6627
3040.00,0.6668
3039.00,0.6712
3038.00,0.6759
3037.00,0.6810
3036.00,0.6867
3035.00,0.6929
3034.00,0.6996
3033.00,0.7066
3032.00,0.7139
3031.00,0.7213
3030.00,0.7286
3029.00,0.7360
3028.00,0.7434
3027.00,0.7509
3026.00,0.7586
3025.00,0.7667
3024.00,0.7751
3023.00,0.7840
3022.00,0.7933
3021.00,0.8029
3020.00,0.8129
3019.00,0.8232
3018.00,0.8338
3017.00,0.8449
3016.00,0.8564
3015.00,0.8684
3014.00,0.8810
3013.00,0.8941
3012.00,0.9079
3011.00,0.9224
3010.00,0.9378
3009.00,0.9541
3008.00,0.9711
3007.00,0.9890
3006.00,1.0078
3005.00,1.0275
3004.00,1.0481
3003.00,1.0696
3002.00,1.0920
3001.00,1.1154
3000.00,1.1399
2999.00,1.1658
2998.00,1.1935
2997.00,1.2234
2996.00,1.2555
2995.00,1.2902
2994.00,1.3279
2993.00,1.3690
2992.00,1.4137
2991.00,1.4624
2990.00,1.5156
2989.00,1.5737
2988.00,1.6370
2987.00,1.7056
2986.00,1.7805
2985.00,1.8630
2984.00,1.9554
2983.00,2.0596
2982.00,2.1756
2981.00,2.3022
2980.00,2.4382
2979.00,2.5857
2978.00,2.7482
2977.00,2.9278
2976.00,3.1264
2975.00,3.3443
2974.00,3.5505
2973.00,3.6778
2972.00,3.7035
2971.00,3.6826
2970.00,3.6496
2969.00,3.6308
2968.00,3.6598
2967.00,3.8065
2966.00,4.1703
2965.00,4.4602
2964.00,4.3104
2963.00,4.1175
2962.00,4.0949
2961.00,4.0789
2960.00,4.0561
2959.00,4.1235
2958.00,4.1003
2957.00,4.0185
2956.00,4.0098
2955.00,4.0943
2954.00,4.1798
2953.00,4.2577
2952.00,4.3692
2951.00,4.4653
2950.00,4.6252
2949.00,4.6339
2948.00,4.3398
2947.00,4.1369
2946.00,4.0624
2945.00,4.0590
2944.00,4.0248
2943.00,4.0262
2942.00,4.0817
2941.00,4.0600
2940.00,3.9457
2939.00,3.8528
2938.00,3.8234
2937.00,3.7951
2936.00,3.7355
2935.00,3.6824
2934.00,3.6684
2933.00,3.6760
2932.00,3.7078
2931.00,3.7822
2930.00,3.9769
2929.00,4.3434
2928.00,4.4705
2927.00,4.5318
2926.00,4.2407
2925.00,3.9453
2924.00,3.7523
2923.00,3.7119
2922.00,3.8216
2921.00,3.9304
2920.00,4.0341
2919.00,4.1149
2918.00,4.0703
2917.00,3.9504
2916.00,3.8507
2915.00,3.8083
2914.00,3.8010
2913.00,3.8168
2912.00,3.8539
2911.00,3.8981
2910.00,3.9049
2909.00,3.8783
2908.00,3.8535
2907.00,3.8503
2906.00,3.8719
2905.00,3.9549
2904.00,4.0988
2903.00,4.0918
2902.00,4.0311
2901.00,4.0268
2900.00,3.9810
2899.00,3.8550
2898.00,3.7444
2897.00,3.7406
2896.00,3.7993
2895.00,3.8814
2894.00,3.9501
2893.00,3.9393
2892.00,3.8938
2891.00,3.8676
2890.00,3.8712
2889.00,3.9178
2888.00,4.0133
2887.00,4.0949
2886.00,4.2205
2885.00,4.5532
2884.00,4.7904
2883.00,4.7280
2882.00,4.5318
2881.00,4.2912
2880.00,3.9959
2879.00,3.7895
2878.00,3.7379
2877.00,3.7886
2876.00,3.9711
2875.00,4.3044
2874.00,4.7031
2873.00,4.8312
2872.00,4.3460
2871.00,4.1301
2870.00,4.0357
2869.00,4.0729
2868.00,4.1529
2867.00,4.2512
2866.00,4.3868
2865.00,4.3005
2864.00,4.1136
2863.00,3.9353
2862.00,3.8512
2861.00,3.8717
2860.00,3.9420
2859.00,3.9679
2858.00,3.9502
2857.00,3.9681
2856.00,3.9792
2855.00,3.9297
2854.00,3.9571
2853.00,4.1497
2852.00,4.4101
2851.00,4.5483
2850.00,4.4314
2849.00,4.3467
2848.00,4.2562
2847.00,4.1147
2846.00,4.0223
2845.00,4.0307
2844.00,4.2808
2843.00,4.7415
2842.00,4.4952
2841.00,4.1871
2840.00,4.0103
2839.00,3.8381
2838.00,3.5814
2837.00,3.3049
2836.00,3.0626
2835.00,2.8621
2834.00,2.6905
2833.00,2.5341
2832.00,2.3905
2831.00,2.2610
2830.00,2.1450
2829.00,2.0402
2828.00,1.9454
2827.00,1.8601
2826.00,1.7829
2825.00,1.7123
2824.00,1.6469
2823.00,1.5867
2822.00,1.5316
2821.00,1.4811
2820.00,1.4346
2819.00,1.3915
2818.00,1.3514
2817.00,1.3137
2816.00,1.2784
2815.00,1.2452
2814.00,1.2139
2813.00,1.1843
2812.00,1.1564
2811.00,1.1301
2810.00,1.1050
2809.00,1.0808
2808.00,1.0575
2807.00,1.0352
2806.00,1.0139
2805.00,0.9934
2804.00,0.9737
2803.00,0.9548
2802.00,0.9364
2801.00,0.9187
2800.00,0.9016
2799.00,0.8851
2798.00,0.8693
2797.00,0.8540
2796.00,0.8394
2795.00,0.8254
2794.00,0.8121
2793.00,0.7992
2792.00,0.7869
2791.00,0.7750
2790.00,0.7634
2789.00,0.7522
2788.00,0.7412
2787.00,0.7304
2786.00,0.7199
2785.00,0.7096
2784.00,0.6994
2783.00,0.6895
2782.00,0.6799
2781.00,0.6706
2780.00,0.6617
2779.00,0.6530
2778.00,0.6447
2777.00,0.6367
2776.00,0.6292
2775.00,0.6221
2774.00,0.6156
2773.00,0.6096
2772.00,0.6040
2771.00,0.5988
2770.00,0.5942
2769.00,0.5899
2768.00,0.5862
2767.00,0.5828
2766.00,0.5799
2765.00,0.5773
2764.00,0.5751
2763.00,0.5731
2762.00,0.5713
2761.00,0.5698
2760.00,0.5685
2759.00,0.5673
2758.00,0.5663
2757.00,0.5654
2756.00,0.5645
2755.00,0.5637
2754.00,0.5630
2753.00,0.5625
2752.00,0.5622
2751.00,0.5622
2750.00,0.5623
2749.00,0.5627
2748.00,0.5632
2747.00,0.5639
2746.00,0.5648
2745.00,0.5658
2744.00,0.5672
2743.00,0.5688
2742.00,0.5709
2741.00,0.5735
2740.00,0.5764
2739.00,0.5797
2738.00,0.5834
2737.00,0.5874
2736.00,0.5919
2735.00,0.5969
2734.00,0.6020
2733.00,0.6068
2732.00,0.6109
2731.00,0.6137
2730.00,0.6150
2729.00,0.6146
2728.00,0.6126
2727.00,0.6093
2726.00,0.6052
2725.00,0.6007
2724.00,0.5962
2723.00,0.5918
2722.00,0.5878
2721.00,0.5840
2720.00,0.5804
2719.00,0.5769
2718.00,0.5735
2717.00,0.5701
2716.00,0.5666
2715.00,0.5630
2714.00,0.5593
2713.00,0.5556
2712.00,0.5520
2711.00,0.5485
2710.00,0.5455
2709.00,0.5427
2708.00,0.5404
2707.00,0.5384
2706.00,0.5366
2705.00,0.5352
2704.00,0.5341
2703.00,0.5333
2702.00,0.5330
2701.00,0.5329
2700.00,0.5332
2699.00,0.5337
2698.00,0.5346
2697.00,0.5358
2696.00,0.5372
2695.00,0.5389
2694.00,0.5408
2693.00,0.5429
2692.00,0.5451
2691.00,0.5474
2690.00,0.5498
2689.00,0.5520
2688.00,0.5540
2687.00,0.5558
2686.00,0.5573
2685.00,0.5586
2684.00,0.5596
2683.00,0.5603
2682.00,0.5608
2681.00,0.5611
2680.00,0.5612
2679.00,0.5612
2678.00,0.5612
2677.00,0.5611
2676.00,0.5610
2675.00,0.5609
2674.00,0.5607
2673.00,0.5604
2672.00,0.5598
2671.00,0.5590
2670.00,0.5578
