Created as New Dataset,
cm-1,A
4000.00,0.3591
3999.00,0.3588
3998.00,0.3585
3997.00,0.3582
3996.00,0.3579
3995.00,0.3576
3994.00,0.3573
3993.00,0.3569
3992.00,0.3566
3991.00,0.3563
3990.00,0.3559
3989.00,0.3555
3988.00,0.3551
3987.00,0.3547
3986.00,0.3543
3985.00,0.3540
3984.00,0.3536
3983.00,0.3532
3982.00,0.3528
3981.00,0.3524
3980.00,0.3519
3979.00,0.3516
3978.00,0.3513
3977.00,0.3510
3976.00,0.3507
3975.00,0.3505
3974.00,0.3503
3973.00,0.3500
3972.00,0.3497
3971.00,0.3495
3970.00,0.3493
3969.00,0.3491
3968.00,0.3490
3967.00,0.3488
3966.00,0.3486
3965.00,0.3484
3964.00,0.3481
3963.00,0.3479
3962.00,0.3478
3961.00,0.3476
3960.00,0.3475
3959.00,0.3474
3958.00,0.3472
3957.00,0.3470
3956.00,0.3469
3955.00,0.3467
3954.00,0.3466
3953.00,0.3464
3952.00,0.3462
3951.00,0.3460
3950.00,0.3458
3949.00,0.3455
3948.00,0.3453
3947.00,0.3451
3946.00,0.3449
3945.00,0.3448
3944.00,0.3447
3943.00,0.3446
3942.00,0.3445
3941.00,0.3443
3940.00,0.3442
3939.00,0.3441
3938.00,0.3441
3937.00,0.3440
3936.00,0.3440
3935.00,0.3440
3934.00,0.3440
3933.00,0.3440
3932.00,0.3439
3931.00,0.3439
3930.00,0.3439
3929.00,0.3438
3928.00,0.3438
3927.00,0.3437
3926.00,0.3437
3925.00,0.3436
3924.00,0.3436
3923.00,0.3436
3922.00,0.3436
3921.00,0.3436
3920.00,0.3436
3919.00,0.3435
3918.00,0.3434
3917.00,0.3434
3916.00,0.3433
3915.00,0.3432
3914.00,0.3431
3913.00,0.3431
3912.00,0.3431
3911.00,0.3430
3910.00,0.3430
3909.00,0.3429
3908.00,0.3428
3907.00,0.3428
3906.00,0.3428
3905.00,0.3428
3904.00,0.3428
3903.00,0.3427
3902.00,0.3427
3901.00,0.3427
3900.00,0.3427
3899.00,0.3427
3898.00,0.3428
3897.00,0.3427
3896.00,0.3427
3895.00,0.3426
3894.00,0.3425
3893.00,0.3423
3892.00,0.3422
3891.00,0.3421
3890.00,0.3420
3889.00,0.3418
3888.00,0.3416
3887.00,0.3415
3886.00,0.3415
3885.00,0.3414
3884.00,0.3413
3883.00,0.3412
3882.00,0.3411
3881.00,0.3410
3880.00,0.3411
3879.00,0.3410
3878.00,0.3409
3877.00,0.3407
3876.00,0.3406
3875.00,0.3406
3874.00,0.3405
3873.00,0.3403
3872.00,0.3401
3871.00,0.3400
3870.00,0.3399
3869.00,0.3398
3868.00,0.3398
3867.00,0.3397
3866.00,0.3397
3865.00,0.3397
3864.00,0.3396
3863.00,0.3395
3862.00,0.3394
3861.00,0.3393
3860.00,0.3392
3859.00,0.3391
3858.00,0.3390
3857.00,0.3389
3856.00,0.3388
3855.00,0.3386
3854.00,0.3385
3853.00,0.3385
3852.00,0.3384
3851.00,0.3383
3850.00,0.3382
3849.00,0.3381
3848.00,0.3380
3847.00,0.3380
3846.00,0.3379
3845.00,0.3378
3844.00,0.3376
3843.00,0.3376
3842.00,0.3375
3841.00,0.3375
3840.00,0.3375
3839.00,0.3374
3838.00,0.3374
3837.00,0.3374
3836.00,0.3373
3835.00,0.3372
3834.00,0.3371
3833.00,0.3371
3832.00,0.3371
3831.00,0.3370
3830.00,0.3369
3829.00,0.3368
3828.00,0.3367
3827.00,0.3367
3826.00,0.3368
3825.00,0.3368
3824.00,0.3367
3823.00,0.3365
3822.00,0.3363
3821.00,0.3362
3820.00,0.3361
3819.00,0.3358
3818.00,0.3356
3817.00,0.3353
3816.00,0.3352
3815.00,0.3350
3814.00,0.3347
3813.00,0.3344
3812.00,0.3341
3811.00,0.3339
3810.00,0.3337
3809.00,0.3335
3808.00,0.3333
3807.00,0.3332
3806.00,0.3331
3805.00,0.3329
3804.00,0.3327
3803.00,0.3326
3802.00,0.3326
3801.00,0.3326
3800.00,0.3324
3799.00,0.3322
3798.00,0.3319
3797.00,0.3318
3796.00,0.3317
3795.00,0.3316
3794.00,0.3314
3793.00,0.3312
3792.00,0.3311
3791.00,0.3309
3790.00,0.3308
3789.00,0.3306
3788.00,0.3304
3787.00,0.3303
3786.00,0.3301
3785.00,0.3300
3784.00,0.3298
3783.00,0.3296
3782.00,0.3294
3781.00,0.3292
3780.00,0.3290
3779.00,0.3287
3778.00,0.3285
3777.00,0.3283
3776.00,0.3281
3775.00,0.3280
3774.00,0.3279
3773.00,0.3276
3772.00,0.3274
3771.00,0.3271
3770.00,0.3270
3769.00,0.3268
3768.00,0.3267
3767.00,0.3266
3766.00,0.3266
3765.00,0.3265
3764.00,0.3264
3763.00,0.3263
3762.00,0.3262
3761.00,0.3262
3760.00,0.3261
3759.00,0.3260
3758.00,0.3259
3757.00,0.3258
3756.00,0.3256
3755.00,0.3254
3754.00,0.3252
3753.00,0.3251
3752.00,0.3249
3751.00,0.3247
3750.00,0.3246
3749.00,0.3244
3748.00,0.3242
3747.00,0.3239
3746.00,0.3237
3745.00,0.3236
3744.00,0.3235
3743.00,0.3233
3742.00,0.3230
3741.00,0.3228
3740.00,0.3227
3739.00,0.3226
3738.00,0.3226
3737.00,0.3224
3736.00,0.3223
3735.00,0.3221
3734.00,0.3220
3733.00,0.3219
3732.00,0.3219
3731.00,0.3218
3730.00,0.3217
3729.00,0.3216
3728.00,0.3214
3727.00,0.3213
3726.00,0.3211
3725.00,0.3210
3724.00,0.3208
3723.00,0.3206
3722.00,0.3205
3721.00,0.3204
3720.00,0.3203
3719.00,0.3201
3718.00,0.3199
3717.00,0.3198
3716.00,0.3197
3715.00,0.3196
3714.00,0.3195
3713.00,0.3195
3712.00,0.3193
3711.00,0.3192
3710.00,0.3190
3709.00,0.3189
3708.00,0.3188
3707.00,0.3188
3706.00,0.3187
3705.00,0.3186
3704.00,0.3185
3703.00,0.3184
3702.00,0.3182
3701.00,0.3181
3700.00,0.3181
3699.00,0.3181
3698.00,0.3181
3697.00,0.3182
3696.00,0.3183
3695.00,0.3184
3694.00,0.3185
3693.00,0.3185
3692.00,0.3185
3691.00,0.3184
3690.00,0.3184
3689.00,0.3184
3688.00,0.3185
3687.00,0.3186
3686.00,0.3186
3685.00,0.3186
3684.00,0.3186
3683.00,0.3185
3682.00,0.3184
3681.00,0.3182
3680.00,0.3181
3679.00,0.3180
3678.00,0.3178
3677.00,0.3176
3676.00,0.3175
3675.00,0.3175
3674.00,0.3174
3673.00,0.3172
3672.00,0.3170
3671.00,0.3169
3670.00,0.3169
3669.00,0.3168
3668.00,0.3168
3667.00,0.3168
3666.00,0.3168
3665.00,0.3168
3664.00,0.3169
3663.00,0.3169
3662.00,0.3170
3661.00,0.3171
3660.00,0.3171
3659.00,0.3172
3658.00,0.3173
3657.00,0.3175
3656.00,0.3177
3655.00,0.3179
3654.00,0.3180
3653.00,0.3182
3652.00,0.3184
3651.00,0.3187
3650.00,0.3189
3649.00,0.3191
3648.00,0.3192
3647.00,0.3192
3646.00,0.3193
3645.00,0.3193
3644.00,0.3194
3643.00,0.3194
3642.00,0.3194
3641.00,0.3194
3640.00,0.3195
3639.00,0.3196
3638.00,0.3197
3637.00,0.3198
3636.00,0.3199
3635.00,0.3200
3634.00,0.3202
3633.00,0.3203
3632.00,0.3204
3631.00,0.3205
3630.00,0.3207
3629.00,0.3211
3628.00,0.3214
3627.00,0.3217
3626.00,0.3220
3625.00,0.3222
3624.00,0.3225
3623.00,0.3228
3622.00,0.3229
3621.00,0.3229
3620.00,0.3228
3619.00,0.3227
3618.00,0.3226
3617.00,0.3225
3616.00,0.3225
3615.00,0.3224
3614.00,0.3224
3613.00,0.3224
3612.00,0.3224
3611.00,0.3225
3610.00,0.3225
3609.00,0.3226
3608.00,0.3227
3607.00,0.3227
3606.00,0.3227
3605.00,0.3225
3604.00,0.3224
3603.00,0.3221
3602.00,0.3218
3601.00,0.3214
3600.00,0.3208
3599.00,0.3202
3598.00,0.3195
3597.00,0.3188
3596.00,0.3182
3595.00,0.3175
3594.00,0.3168
3593.00,0.3162
3592.00,0.3157
3591.00,0.3152
3590.00,0.3148
3589.00,0.3145
3588.00,0.3142
3587.00,0.3141
3586.00,0.3139
3585.00,0.3138
3584.00,0.3137
3583.00,0.3136
3582.00,0.3136
3581.00,0.3135
3580.00,0.3135
3579.00,0.3134
3578.00,0.3133
3577.00,0.3133
3576.00,0.3133
3575.00,0.3133
3574.00,0.3134
3573.00,0.3134
3572.00,0.3135
3571.00,0.3136
3570.00,0.3136
3569.00,0.3137
3568.00,0.3138
3567.00,0.3139
3566.00,0.3140
3565.00,0.3141
3564.00,0.3142
3563.00,0.3144
3562.00,0.3145
3561.00,0.3148
3560.00,0.3150
3559.00,0.3152
3558.00,0.3153
3557.00,0.3155
3556.00,0.3158
3555.00,0.3161
3554.00,0.3164
3553.00,0.3168
3552.00,0.3171
3551.00,0.3175
3550.00,0.3179
3549.00,0.3182
3548.00,0.3186
3547.00,0.3190
3546.00,0.3193
3545.00,0.3196
3544.00,0.3199
3543.00,0.3203
3542.00,0.3206
3541.00,0.3209
3540.00,0.3213
3539.00,0.3217
3538.00,0.3220
3537.00,0.3223
3536.00,0.3226
3535.00,0.3229
3534.00,0.3232
3533.00,0.3234
3532.00,0.3237
3531.00,0.3240
3530.00,0.3243
3529.00,0.3245
3528.00,0.3248
3527.00,0.3251
3526.00,0.3254
3525.00,0.3257
3524.00,0.3261
3523.00,0.3264
3522.00,0.3267
3521.00,0.3270
3520.00,0.3273
3519.00,0.3277
3518.00,0.3281
3517.00,0.3285
3516.00,0.3289
3515.00,0.3293
3514.00,0.3297
3513.00,0.3302
3512.00,0.3306
3511.00,0.3311
3510.00,0.3315
3509.00,0.3320
3508.00,0.3324
3507.00,0.3329
3506.00,0.3334
3505.00,0.3339
3504.00,0.3343
3503.00,0.3348
3502.00,0.3352
3501.00,0.3357
3500.00,0.3362
3499.00,0.3367
3498.00,0.3373
3497.00,0.3378
3496.00,0.3384
3495.00,0.3390
3494.00,0.3395
3493.00,0.3401
3492.00,0.3407
3491.00,0.3413
3490.00,0.3420
3489.00,0.3426
3488.00,0.3432
3487.00,0.3438
3486.00,0.3444
3485.00,0.3451
3484.00,0.3457
3483.00,0.3464
3482.00,0.3470
3481.00,0.3476
3480.00,0.3481
3479.00,0.3486
3478.00,0.3491
3477.00,0.3496
3476.00,0.3501
3475.00,0.3505
3474.00,0.3511
3473.00,0.3516
3472.00,0.3521
3471.00,0.3527
3470.00,0.3533
3469.00,0.3539
3468.00,0.3545
3467.00,0.3550
3466.00,0.3556
3465.00,0.3561
3464.00,0.3567
3463.00,0.3573
3462.00,0.3579
3461.00,0.3585
3460.00,0.3592
3459.00,0.3598
3458.00,0.3604
3457.00,0.3611
3456.00,0.3617
3455.00,0.3623
3454.00,0.3630
3453.00,0.3636
3452.00,0.3643
3451.00,0.3650
3450.00,0.3657
3449.00,0.3664
3448.00,0.3672
3447.00,0.3680
3446.00,0.3688
3445.00,0.3696
3444.00,0.3704
3443.00,0.3711
3442.00,0.3718
3441.00,0.3726
3440.00,0.3733
3439.00,0.3740
3438.00,0.3748
3437.00,0.3756
3436.00,0.3764
3435.00,0.3772
3434.00,0.3780
3433.00,0.3787
3432.00,0.3795
3431.00,0.3803
3430.00,0.3811
3429.00,0.3820
3428.00,0.3829
3427.00,0.3837
3426.00,0.3845
3425.00,0.3853
3424.00,0.3861
3423.00,0.3870
3422.00,0.3879
3421.00,0.3888
3420.00,0.3898
3419.00,0.3907
3418.00,0.3917
3417.00,0.3927
3416.00,0.3938
3415.00,0.3949
3414.00,0.3960
3413.00,0.3971
3412.00,0.3982
3411.00,0.3992
3410.00,0.4003
3409.00,0.4014
3408.00,0.4025
3407.00,0.4036
3406.00,0.4048
3405.00,0.4061
3404.00,0.4073
3403.00,0.4086
3402.00,0.4098
3401.00,0.4110
3400.00,0.4122
3399.00,0.4134
3398.00,0.4146
3397.00,0.4158
3396.00,0.4171
3395.00,0.4184
3394.00,0.4197
3393.00,0.4209
3392.00,0.4222
3391.00,0.4235
3390.00,0.4248
3389.00,0.4262
3388.00,0.4276
3387.00,0.4289
3386.00,0.4302
3385.00,0.4316
3384.00,0.4330
3383.00,0.4345
3382.00,0.4360
3381.00,0.4376
3380.00,0.4391
3379.00,0.4405
3378.00,0.4420
3377.00,0.4434
3376.00,0.4450
3375.00,0.4466
3374.00,0.4483
3373.00,0.4501
3372.00,0.4518
3371.00,0.4536
3370.00,0.4553
3369.00,0.4570
3368.00,0.4587
3367.00,0.4605
3366.00,0.4624
3365.00,0.4644
3364.00,0.4663
3363.00,0.4683
3362.00,0.4702
3361.00,0.4722
3360.00,0.4742
3359.00,0.4762
3358.00,0.4782
3357.00,0.4802
3356.00,0.4822
3355.00,0.4843
3354.00,0.4863
3353.00,0.4884
3352.00,0.4905
3351.00,0.4926
3350.00,0.4946
3349.00,0.4966
3348.00,0.4985
3347.00,0.5004
3346.00,0.5022
3345.00,0.5041
3344.00,0.5061
3343.00,0.5079
3342.00,0.5096
3341.00,0.5112
3340.00,0.5128
3339.00,0.5142
3338.00,0.5156
3337.00,0.5170
3336.00,0.5182
3335.00,0.5194
3334.00,0.5205
3333.00,0.5215
3332.00,0.5224
3331.00,0.5232
3330.00,0.5238
3329.00,0.5243
3328.00,0.5247
3327.00,0.5250
3326.00,0.5251
3325.00,0.5252
3324.00,0.5251
3323.00,0.5249
3322.00,0.5246
3321.00,0.5241
3320.00,0.5236
3319.00,0.5230
3318.00,0.5223
3317.00,0.5216
3316.00,0.5208
3315.00,0.5199
3314.00,0.5191
3313.00,0.5182
3312.00,0.5173
3311.00,0.5163
3310.00,0.5152
3309.00,0.5142
3308.00,0.5131
3307.00,0.5119
3306.00,0.5108
3305.00,0.5096
3304.00,0.5085
3303.00,0.5075
3302.00,0.5065
3301.00,0.5056
3300.00,0.5046
3299.00,0.5037
3298.00,0.5028
3297.00,0.5019
3296.00,0.5011
3295.00,0.5003
3294.00,0.4996
3293.00,0.4990
3292.00,0.4985
3291.00,0.4979
3290.00,0.4975
3289.00,0.4970
3288.00,0.4967
3287.00,0.4965
3286.00,0.4963
3285.00,0.4961
3284.00,0.4960
3283.00,0.4959
3282.00,0.4958
3281.00,0.4959
3280.00,0.4959
3279.00,0.4961
3278.00,0.4963
3277.00,0.4966
3276.00,0.4968
3275.00,0.4969
3274.00,0.4972
3273.00,0.4975
3272.00,0.4979
3271.00,0.4984
3270.00,0.4989
3269.00,0.4994
3268.00,0.5000
3267.00,0.5005
3266.00,0.5010
3265.00,0.5016
3264.00,0.5022
3263.00,0.5028
3262.00,0.5035
3261.00,0.5041
3260.00,0.5047
3259.00,0.5054
3258.00,0.5060
3257.00,0.5067
3256.00,0.5073
3255.00,0.5079
3254.00,0.5085
3253.00,0.5091
3252.00,0.5097
3251.00,0.5103
3250.00,0.5108
3249.00,0.5113
3248.00,0.5119
3247.00,0.5124
3246.00,0.5129
3245.00,0.5133
3244.00,0.5136
3243.00,0.5139
3242.00,0.5141
3241.00,0.5145
3240.00,0.5148
3239.00,0.5150
3238.00,0.5152
3237.00,0.5153
3236.00,0.5154
3235.00,0.5154
3234.00,0.5154
3233.00,0.5153
3232.00,0.5153
3231.00,0.5152
3230.00,0.5151
3229.00,0.5149
3228.00,0.5147
3227.00,0.5145
3226.00,0.5142
3225.00,0.5140
3224.00,0.5137
3223.00,0.5134
3222.00,0.5130
3221.00,0.5127
3220.00,0.5123
3219.00,0.5118
3218.00,0.5113
3217.00,0.5108
3216.00,0.5103
3215.00,0.5098
3214.00,0.5093
3213.00,0.5088
3212.00,0.5082
3211.00,0.5077
3210.00,0.5072
3209.00,0.5067
3208.00,0.5062
3207.00,0.5056
3206.00,0.5050
3205.00,0.5044
3204.00,0.5038
3203.00,0.5032
3202.00,0.5026
3201.00,0.5019
3200.00,0.5013
3199.00,0.5006
3198.00,0.5000
3197.00,0.4994
3196.00,0.4988
3195.00,0.4981
3194.00,0.4974
3193.00,0.4967
3192.00,0.4959
3191.00,0.4952
3190.00,0.4944
3189.00,0.4937
3188.00,0.4930
3187.00,0.4923
3186.00,0.4915
3185.00,0.4906
3184.00,0.4897
3183.00,0.4887
3182.00,0.4878
3181.00,0.4869
3180.00,0.4861
3179.00,0.4852
3178.00,0.4843
3177.00,0.4833
3176.00,0.4824
3175.00,0.4814
3174.00,0.4804
3173.00,0.4795
3172.00,0.4785
3171.00,0.4775
3170.00,0.4765
3169.00,0.4755
3168.00,0.4744
3167.00,0.4734
3166.00,0.4724
3165.00,0.4714
3164.00,0.4704
3163.00,0.4693
3162.00,0.4684
3161.00,0.4674
3160.00,0.4664
3159.00,0.4655
3158.00,0.4645
3157.00,0.4636
3156.00,0.4627
3155.00,0.4617
3154.00,0.4608
3153.00,0.4599
3152.00,0.4590
3151.00,0.4581
3150.00,0.4572
3149.00,0.4564
3148.00,0.4556
3147.00,0.4548
3146.00,0.4540
3145.00,0.4532
3144.00,0.4524
3143.00,0.4517
3142.00,0.4511
3141.00,0.4504
3140.00,0.4498
3139.00,0.4491
3138.00,0.4484
3137.00,0.4478
3136.00,0.4472
3135.00,0.4467
3134.00,0.4462
3133.00,0.4457
3132.00,0.4452
3131.00,0.4449
3130.00,0.4446
3129.00,0.4443
3128.00,0.4441
3127.00,0.4440
3126.00,0.4439
3125.00,0.4439
3124.00,0.4439
3123.00,0.4439
3122.00,0.4439
3121.00,0.4439
3120.00,0.4441
3119.00,0.4442
3118.00,0.4444
3117.00,0.4446
3116.00,0.4448
3115.00,0.4451
3114.00,0.4455
3113.00,0.4458
3112.00,0.4463
3111.00,0.4468
3110.00,0.4473
3109.00,0.4480
3108.00,0.4487
3107.00,0.4494
3106.00,0.4502
3105.00,0.4509
3104.00,0.4516
3103.00,0.4524
3102.00,0.4532
3101.00,0.4540
3100.00,0.4548
3099.00,0.4557
3098.00,0.4568
3097.00,0.4579
3096.00,0.4591
3095.00,0.4604
3094.00,0.4619
3093.00,0.4635
3092.00,0.4654
3091.00,0.4675
3090.00,0.4698
3089.00,0.4723
3088.00,0.4748
3087.00,0.4774
3086.00,0.4802
3085.00,0.4831
3084.00,0.4862
3083.00,0.4893
3082.00,0.4925
3081.00,0.4959
3080.00,0.4995
3079.00,0.5034
3078.00,0.5074
3077.00,0.5117
3076.00,0.5161
3075.00,0.5206
3074.00,0.5252
3073.00,0.5298
3072.00,0.5344
3071.00,0.5389
3070.00,0.5435
3069.00,0.5481
3068.00,0.5527
3067.00,0.5572
3066.00,0.5617
3065.00,0.5660
3064.00,0.5701
3063.00,0.5740
3062.00,0.5775
3061.00,0.5808
3060.00,0.5838
3059.00,0.5865
3058.00,0.5893
3057.00,0.5920
3056.00,0.5949
3055.00,0.5979
3054.00,0.6011
3053.00,0.6044
3052.00,0.6080
3051.00,0.6118
3050.00,0.6159
3049.00,0.6202
3048.00,0.6247
3047.00,0.6293
3046.00,0.6341
3045.00,0.6388
3044.00,0.6436
3043.00,0.6483
3042.00,0.6529
3041.00,0.6577
3040.00,0.6626
3039.00,0.6676
3038.00,0.6728
3037.00,0.6781
3036.00,0.6837
3035.00,0.6897
3034.00,0.6962
3033.00,0.7033
3032.00,0.7108
3031.00,0.7187
3030.00,0.7271
3029.00,0.7359
3028.00,0.7452
3027.00,0.7548
3026.00,0.7648
3025.00,0.7751
3024.00,0.7857
3023.00,0.7966
3022.00,0.8079
3021.00,0.8195
3020.00,0.8315
3019.00,0.8437
3018.00,0.8561
3017.00,0.8686
3016.00,0.8812
3015.00,0.8936
3014.00,0.9061
3013.00,0.9189
3012.00,0.9320
3011.00,0.9456
3010.00,0.9598
3009.00,0.9747
3008.00,0.9902
3007.00,1.0064
3006.00,1.0231
3005.00,1.0405
3004.00,1.0584
3003.00,1.0767
3002.00,1.0956
3001.00,1.1152
3000.00,1.1355
2999.00,1.1569
2998.00,1.1799
2997.00,1.2052
2996.00,1.2330
2995.00,1.2637
2994.00,1.2978
2993.00,1.3359
2992.00,1.3784
2991.00,1.4262
2990.00,1.4798
2989.00,1.5398
2988.00,1.6072
2987.00,1.6826
2986.00,1.7665
2985.00,1.8587
2984.00,1.9592
2983.00,2.0694
2982.00,2.1907
2981.00,2.3242
2980.00,2.4702
2979.00,2.6315
2978.00,2.8168
2977.00,3.0393
2976.00,3.3173
2975.00,3.6474
2974.00,3.9206
2973.00,3.9567
2972.00,3.8442
2971.00,3.8088
2970.00,3.9067
2969.00,4.0841
2968.00,4.1416
2967.00,4.0478
2966.00,3.9939
2965.00,4.0034
2964.00,3.9905
2963.00,3.9605
2962.00,3.9304
2961.00,3.8893
2960.00,3.8524
2959.00,3.8061
2958.00,3.7534
2957.00,3.7245
2956.00,3.7442
2955.00,3.8175
2954.00,3.9183
2953.00,3.9753
2952.00,3.9688
2951.00,3.9457
2950.00,3.9023
2949.00,3.8138
2948.00,3.7293
2947.00,3.7266
2946.00,3.8452
2945.00,4.0912
2944.00,4.3389
2943.00,4.4005
2942.00,4.4442
2941.00,4.4634
2940.00,4.3290
2939.00,4.1319
2938.00,4.0219
2937.00,3.9792
2936.00,3.9414
2935.00,3.9417
2934.00,3.9927
2933.00,4.1476
2932.00,4.3275
2931.00,4.2403
2930.00,4.1271
2929.00,4.1059
2928.00,4.0670
2927.00,3.9338
2926.00,3.8541
2925.00,3.9441
2924.00,4.1532
2923.00,4.2018
2922.00,4.0887
2921.00,4.0104
2920.00,4.0034
2919.00,3.9526
2918.00,3.8538
2917.00,3.8206
2916.00,3.8869
2915.00,4.0435
2914.00,4.1762
2913.00,4.2095
2912.00,4.2125
2911.00,4.4089
2910.00,4.5025
2909.00,4.1322
2908.00,3.9436
2907.00,4.0134
2906.00,4.3881
2905.00,4.4761
2904.00,4.1934
2903.00,4.0191
2902.00,3.9528
2901.00,3.9477
2900.00,3.9552
2899.00,4.0397
2898.00,4.2518
2897.00,4.3692
2896.00,4.2626
2895.00,4.1780
2894.00,4.3711
2893.00,4.9095
2892.00,4.7494
2891.00,4.4948
2890.00,4.3292
2889.00,4.3219
2888.00,4.3569
2887.00,4.2096
2886.00,4.0246
2885.00,3.9317
2884.00,3.9652
2883.00,4.1574
2882.00,4.4730
2881.00,4.4160
2880.00,4.2494
2879.00,4.2871
2878.00,4.5976
2877.00,4.6929
2876.00,4.2193
2875.00,4.0046
2874.00,3.9230
2873.00,4.0527
2872.00,4.4239
2871.00,4.2386
2870.00,3.9636
2869.00,3.8588
2868.00,3.9987
2867.00,4.1124
2866.00,4.0724
2865.00,4.0787
2864.00,4.0045
2863.00,3.9023
2862.00,3.8415
2861.00,3.9896
2860.00,4.4374
2859.00,4.7553
2858.00,4.4177
2857.00,4.1376
2856.00,4.0729
2855.00,4.0575
2854.00,3.9954
2853.00,3.9145
2852.00,3.8540
2851.00,3.8663
2850.00,3.9308
2849.00,3.9800
2848.00,3.9982
2847.00,3.9790
2846.00,3.9249
2845.00,3.8517
2844.00,3.8311
2843.00,3.8654
2842.00,3.9785
2841.00,4.2562
2840.00,4.1694
2839.00,3.7691
2838.00,3.4745
2837.00,3.2694
2836.00,3.0647
2835.00,2.8484
2834.00,2.6473
2833.00,2.4666
2832.00,2.3078
2831.00,2.1687
2830.00,2.0451
2829.00,1.9344
2828.00,1.8354
2827.00,1.7471
2826.00,1.6682
2825.00,1.5970
2824.00,1.5321
2823.00,1.4727
2822.00,1.4183
2821.00,1.3682
2820.00,1.3221
2819.00,1.2796
2818.00,1.2405
2817.00,1.2043
2816.00,1.1705
2815.00,1.1389
2814.00,1.1092
2813.00,1.0813
2812.00,1.0549
2811.00,1.0299
2810.00,1.0063
2809.00,0.9838
2808.00,0.9625
2807.00,0.9421
2806.00,0.9227
2805.00,0.9043
2804.00,0.8869
2803.00,0.8705
2802.00,0.8548
2801.00,0.8398
2800.00,0.8253
2799.00,0.8115
2798.00,0.7984
2797.00,0.7859
2796.00,0.7739
2795.00,0.7623
2794.00,0.7511
2793.00,0.7403
2792.00,0.7298
2791.00,0.7195
2790.00,0.7094
2789.00,0.6994
2788.00,0.6897
2787.00,0.6802
2786.00,0.6710
2785.00,0.6620
2784.00,0.6533
2783.00,0.6448
2782.00,0.6367
2781.00,0.6289
2780.00,0.6215
2779.00,0.6144
2778.00,0.6076
2777.00,0.6011
2776.00,0.5951
2775.00,0.5893
2774.00,0.5840
2773.00,0.5789
2772.00,0.5740
2771.00,0.5696
2770.00,0.5655
2769.00,0.5618
2768.00,0.5585
2767.00,0.5556
2766.00,0.5529
2765.00,0.5506
2764.00,0.5485
2763.00,0.5465
2762.00,0.5448
2761.00,0.5433
2760.00,0.5420
2759.00,0.5409
2758.00,0.5398
2757.00,0.5388
2756.00,0.5378
2755.00,0.5367
2754.00,0.5358
2753.00,0.5350
2752.00,0.5344
2751.00,0.5342
2750.00,0.5341
2749.00,0.5343
2748.00,0.5348
2747.00,0.5353
2746.00,0.5361
2745.00,0.5371
2744.00,0.5383
2743.00,0.5400
2742.00,0.5420
2741.00,0.5445
2740.00,0.5475
2739.00,0.5509
2738.00,0.5549
2737.00,0.5594
2736.00,0.5644
2735.00,0.5698
2734.00,0.5754
2733.00,0.5809
2732.00,0.5859
2731.00,0.5901
2730.00,0.5933
2729.00,0.5952
2728.00,0.5959
2727.00,0.5956
2726.00,0.5945
2725.00,0.5928
2724.00,0.5905
2723.00,0.5879
2722.00,0.5850
2721.00,0.5819
2720.00,0.5784
2719.00,0.5747
2718.00,0.5706
2717.00,0.5663
2716.00,0.5617
2715.00,0.5569
2714.00,0.5521
2713.00,0.5475
2712.00,0.5431
2711.00,0.5391
2710.00,0.5356
2709.00,0.5324
2708.00,0.5298
2707.00,0.5275
2706.00,0.5256
2705.00,0.5240
2704.00,0.5227
2703.00,0.5218
2702.00,0.5211
2701.00,0.5206
2700.00,0.5203
2699.00,0.5202
2698.00,0.5203
2697.00,0.5207
2696.00,0.5212
2695.00,0.5219
2694.00,0.5227
2693.00,0.5235
2692.00,0.5243
2691.00,0.5251
2690.00,0.5260
2689.00,0.5267
2688.00,0.5275
2687.00,0.5281
2686.00,0.5287
2685.00,0.5291
2684.00,0.5294
2683.00,0.5296
2682.00,0.5298
2681.00,0.5300
2680.00,0.5303
2679.00,0.5306
2678.00,0.5309
2677.00,0.5312
2676.00,0.5316
2675.00,0.5320
2674.00,0.5323
2673.00,0.5326
2672.00,0.5328
2671.00,0.5328
2670.00,0.5325
