Created as New Dataset,
cm-1,A
4000.00,0.3667
3999.00,0.3665
3998.00,0.3662
3997.00,0.3659
3996.00,0.3656
3995.00,0.3653
3994.00,0.3649
3993.00,0.3646
3992.00,0.3644
3991.00,0.3641
3990.00,0.3638
3989.00,0.3634
3988.00,0.3630
3987.00,0.3625
3986.00,0.3620
3985.00,0.3616
3984.00,0.3613
3983.00,0.3610
3982.00,0.3606
3981.00,0.3602
3980.00,0.3598
3979.00,0.3595
3978.00,0.3592
3977.00,0.3589
3976.00,0.3586
3975.00,0.3583
3974.00,0.3580
3973.00,0.3577
3972.00,0.3575
3971.00,0.3573
3970.00,0.3571
3969.00,0.3568
3968.00,0.3566
3967.00,0.3562
3966.00,0.3559
3965.00,0.3557
3964.00,0.3555
3963.00,0.3554
3962.00,0.3553
3961.00,0.3552
3960.00,0.3550
3959.00,0.3549
3958.00,0.3547
3957.00,0.3545
3956.00,0.3544
3955.00,0.3542
3954.00,0.3541
3953.00,0.3540
3952.00,0.3539
3951.00,0.3537
3950.00,0.3536
3949.00,0.3534
3948.00,0.3532
3947.00,0.3531
3946.00,0.3529
3945.00,0.3527
3944.00,0.3525
3943.00,0.3523
3942.00,0.3522
3941.00,0.3520
3940.00,0.3519
3939.00,0.3517
3938.00,0.3516
3937.00,0.3516
3936.00,0.3515
3935.00,0.3515
3934.00,0.3514
3933.00,0.3513
3932.00,0.3513
3931.00,0.3514
3930.00,0.3514
3929.00,0.3515
3928.00,0.3515
3927.00,0.3515
3926.00,0.3515
3925.00,0.3514
3924.00,0.3514
3923.00,0.3513
3922.00,0.3513
3921.00,0.3513
3920.00,0.3513
3919.00,0.3513
3918.00,0.3513
3917.00,0.3513
3916.00,0.3512
3915.00,0.3512
3914.00,0.3511
3913.00,0.3509
3912.00,0.3508
3911.00,0.3506
3910.00,0.3505
3909.00,0.3504
3908.00,0.3503
3907.00,0.3502
3906.00,0.3500
3905.00,0.3498
3904.00,0.3498
3903.00,0.3499
3902.00,0.3499
3901.00,0.3499
3900.00,0.3500
3899.00,0.3500
3898.00,0.3500
3897.00,0.3500
3896.00,0.3499
3895.00,0.3498
3894.00,0.3498
3893.00,0.3496
3892.00,0.3495
3891.00,0.3494
3890.00,0.3494
3889.00,0.3494
3888.00,0.3492
3887.00,0.3490
3886.00,0.3490
3885.00,0.3490
3884.00,0.3491
3883.00,0.3490
3882.00,0.3489
3881.00,0.3488
3880.00,0.3487
3879.00,0.3486
3878.00,0.3486
3877.00,0.3485
3876.00,0.3482
3875.00,0.3481
3874.00,0.3479
3873.00,0.3478
3872.00,0.3476
3871.00,0.3473
3870.00,0.3472
3869.00,0.3471
3868.00,0.3470
3867.00,0.3468
3866.00,0.3466
3865.00,0.3466
3864.00,0.3466
3863.00,0.3465
3862.00,0.3464
3861.00,0.3462
3860.00,0.3460
3859.00,0.3459
3858.00,0.3459
3857.00,0.3459
3856.00,0.3458
3855.00,0.3457
3854.00,0.3457
3853.00,0.3458
3852.00,0.3458
3851.00,0.3458
3850.00,0.3457
3849.00,0.3457
3848.00,0.3457
3847.00,0.3457
3846.00,0.3456
3845.00,0.3455
3844.00,0.3453
3843.00,0.3453
3842.00,0.3452
3841.00,0.3451
3840.00,0.3449
3839.00,0.3448
3838.00,0.3447
3837.00,0.3445
3836.00,0.3444
3835.00,0.3443
3834.00,0.3442
3833.00,0.3442
3832.00,0.3441
3831.00,0.3441
3830.00,0.3441
3829.00,0.3440
3828.00,0.3439
3827.00,0.3438
3826.00,0.3437
3825.00,0.3437
3824.00,0.3436
3823.00,0.3434
3822.00,0.3433
3821.00,0.3433
3820.00,0.3433
3819.00,0.3432
3818.00,0.3430
3817.00,0.3428
3816.00,0.3428
3815.00,0.3427
3814.00,0.3425
3813.00,0.3422
3812.00,0.3419
3811.00,0.3418
3810.00,0.3416
3809.00,0.3413
3808.00,0.3410
3807.00,0.3408
3806.00,0.3407
3805.00,0.3406
3804.00,0.3403
3803.00,0.3399
3802.00,0.3397
3801.00,0.3396
3800.00,0.3395
3799.00,0.3393
3798.00,0.3391
3797.00,0.3389
3796.00,0.3388
3795.00,0.3387
3794.00,0.3386
3793.00,0.3384
3792.00,0.3382
3791.00,0.3380
3790.00,0.3379
3789.00,0.3378
3788.00,0.3377
3787.00,0.3376
3786.00,0.3375
3785.00,0.3374
3784.00,0.3373
3783.00,0.3372
3782.00,0.3371
3781.00,0.3369
3780.00,0.3368
3779.00,0.3367
3778.00,0.3365
3777.00,0.3363
3776.00,0.3360
3775.00,0.3358
3774.00,0.3357
3773.00,0.3355
3772.00,0.3353
3771.00,0.3350
3770.00,0.3348
3769.00,0.3346
3768.00,0.3344
3767.00,0.3342
3766.00,0.3340
3765.00,0.3339
3764.00,0.3338
3763.00,0.3336
3762.00,0.3334
3761.00,0.3332
3760.00,0.3330
3759.00,0.3328
3758.00,0.3326
3757.00,0.3323
3756.00,0.3322
3755.00,0.3320
3754.00,0.3319
3753.00,0.3318
3752.00,0.3316
3751.00,0.3314
3750.00,0.3312
3749.00,0.3312
3748.00,0.3313
3747.00,0.3312
3746.00,0.3311
3745.00,0.3310
3744.00,0.3311
3743.00,0.3310
3742.00,0.3308
3741.00,0.3306
3740.00,0.3304
3739.00,0.3303
3738.00,0.3302
3737.00,0.3300
3736.00,0.3298
3735.00,0.3297
3734.00,0.3295
3733.00,0.3294
3732.00,0.3293
3731.00,0.3292
3730.00,0.3290
3729.00,0.3288
3728.00,0.3285
3727.00,0.3283
3726.00,0.3282
3725.00,0.3280
3724.00,0.3278
3723.00,0.3275
3722.00,0.3273
3721.00,0.3272
3720.00,0.3270
3719.00,0.3269
3718.00,0.3267
3717.00,0.3267
3716.00,0.3266
3715.00,0.3265
3714.00,0.3264
3713.00,0.3264
3712.00,0.3264
3711.00,0.3264
3710.00,0.3264
3709.00,0.3264
3708.00,0.3264
3707.00,0.3264
3706.00,0.3263
3705.00,0.3263
3704.00,0.3263
3703.00,0.3262
3702.00,0.3261
3701.00,0.3260
3700.00,0.3259
3699.00,0.3258
3698.00,0.3257
3697.00,0.3257
3696.00,0.3256
3695.00,0.3256
3694.00,0.3254
3693.00,0.3254
3692.00,0.3253
3691.00,0.3252
3690.00,0.3252
3689.00,0.3251
3688.00,0.3251
3687.00,0.3251
3686.00,0.3250
3685.00,0.3250
3684.00,0.3250
3683.00,0.3250
3682.00,0.3248
3681.00,0.3246
3680.00,0.3245
3679.00,0.3245
3678.00,0.3244
3677.00,0.3242
3676.00,0.3240
3675.00,0.3241
3674.00,0.3243
3673.00,0.3243
3672.00,0.3243
3671.00,0.3242
3670.00,0.3242
3669.00,0.3243
3668.00,0.3242
3667.00,0.3241
3666.00,0.3240
3665.00,0.3240
3664.00,0.3240
3663.00,0.3240
3662.00,0.3240
3661.00,0.3240
3660.00,0.3240
3659.00,0.3241
3658.00,0.3241
3657.00,0.3241
3656.00,0.3241
3655.00,0.3242
3654.00,0.3243
3653.00,0.3243
3652.00,0.3245
3651.00,0.3246
3650.00,0.3248
3649.00,0.3250
3648.00,0.3252
3647.00,0.3253
3646.00,0.3253
3645.00,0.3253
3644.00,0.3254
3643.00,0.3255
3642.00,0.3256
3641.00,0.3258
3640.00,0.3259
3639.00,0.3259
3638.00,0.3260
3637.00,0.3262
3636.00,0.3262
3635.00,0.3263
3634.00,0.3264
3633.00,0.3265
3632.00,0.3267
3631.00,0.3268
3630.00,0.3269
3629.00,0.3272
3628.00,0.3275
3627.00,0.3277
3626.00,0.3279
3625.00,0.3281
3624.00,0.3283
3623.00,0.3284
3622.00,0.3285
3621.00,0.3284
3620.00,0.3282
3619.00,0.3280
3618.00,0.3279
3617.00,0.3277
3616.00,0.3276
3615.00,0.3275
3614.00,0.3275
3613.00,0.3274
3612.00,0.3275
3611.00,0.3274
3610.00,0.3274
3609.00,0.3274
3608.00,0.3273
3607.00,0.3273
3606.00,0.3272
3605.00,0.3270
3604.00,0.3269
3603.00,0.3266
3602.00,0.3263
3601.00,0.3259
3600.00,0.3254
3599.00,0.3248
3598.00,0.3242
3597.00,0.3235
3596.00,0.3228
3595.00,0.3221
3594.00,0.3215
3593.00,0.3209
3592.00,0.3204
3591.00,0.3200
3590.00,0.3196
3589.00,0.3192
3588.00,0.3189
3587.00,0.3187
3586.00,0.3185
3585.00,0.3183
3584.00,0.3181
3583.00,0.3180
3582.00,0.3179
3581.00,0.3177
3580.00,0.3177
3579.00,0.3176
3578.00,0.3176
3577.00,0.3176
3576.00,0.3177
3575.00,0.3177
3574.00,0.3177
3573.00,0.3177
3572.00,0.3177
3571.00,0.3178
3570.00,0.3179
3569.00,0.3180
3568.00,0.3182
3567.00,0.3184
3566.00,0.3185
3565.00,0.3186
3564.00,0.3187
3563.00,0.3188
3562.00,0.3190
3561.00,0.3191
3560.00,0.3193
3559.00,0.3194
3558.00,0.3196
3557.00,0.3197
3556.00,0.3199
3555.00,0.3202
3554.00,0.3204
3553.00,0.3207
3552.00,0.3210
3551.00,0.3213
3550.00,0.3216
3549.00,0.3219
3548.00,0.3222
3547.00,0.3225
3546.00,0.3227
3545.00,0.3230
3544.00,0.3233
3543.00,0.3236
3542.00,0.3239
3541.00,0.3242
3540.00,0.3245
3539.00,0.3249
3538.00,0.3252
3537.00,0.3255
3536.00,0.3257
3535.00,0.3259
3534.00,0.3262
3533.00,0.3264
3532.00,0.3266
3531.00,0.3269
3530.00,0.3271
3529.00,0.3274
3528.00,0.3276
3527.00,0.3278
3526.00,0.3280
3525.00,0.3283
3524.00,0.3285
3523.00,0.3288
3522.00,0.3290
3521.00,0.3291
3520.00,0.3293
3519.00,0.3295
3518.00,0.3298
3517.00,0.3302
3516.00,0.3305
3515.00,0.3308
3514.00,0.3311
3513.00,0.3314
3512.00,0.3317
3511.00,0.3321
3510.00,0.3324
3509.00,0.3327
3508.00,0.3331
3507.00,0.3336
3506.00,0.3341
3505.00,0.3346
3504.00,0.3351
3503.00,0.3356
3502.00,0.3361
3501.00,0.3366
3500.00,0.3370
3499.00,0.3375
3498.00,0.3380
3497.00,0.3385
3496.00,0.3391
3495.00,0.3397
3494.00,0.3403
3493.00,0.3409
3492.00,0.3415
3491.00,0.3422
3490.00,0.3428
3489.00,0.3435
3488.00,0.3441
3487.00,0.3446
3486.00,0.3451
3485.00,0.3456
3484.00,0.3461
3483.00,0.3466
3482.00,0.3471
3481.00,0.3476
3480.00,0.3480
3479.00,0.3484
3478.00,0.3488
3477.00,0.3492
3476.00,0.3496
3475.00,0.3500
3474.00,0.3504
3473.00,0.3509
3472.00,0.3514
3471.00,0.3519
3470.00,0.3525
3469.00,0.3531
3468.00,0.3536
3467.00,0.3541
3466.00,0.3546
3465.00,0.3551
3464.00,0.3556
3463.00,0.3562
3462.00,0.3568
3461.00,0.3573
3460.00,0.3579
3459.00,0.3584
3458.00,0.3590
3457.00,0.3595
3456.00,0.3601
3455.00,0.3606
3454.00,0.3612
3453.00,0.3619
3452.00,0.3625
3451.00,0.3631
3450.00,0.3637
3449.00,0.3643
3448.00,0.3649
3447.00,0.3656
3446.00,0.3662
3445.00,0.3669
3444.00,0.3676
3443.00,0.3683
3442.00,0.3689
3441.00,0.3696
3440.00,0.3703
3439.00,0.3710
3438.00,0.3717
3437.00,0.3724
3436.00,0.3731
3435.00,0.3738
3434.00,0.3744
3433.00,0.3751
3432.00,0.3757
3431.00,0.3764
3430.00,0.3771
3429.00,0.3779
3428.00,0.3786
3427.00,0.3794
3426.00,0.3801
3425.00,0.3808
3424.00,0.3815
3423.00,0.3823
3422.00,0.3830
3421.00,0.3837
3420.00,0.3845
3419.00,0.3854
3418.00,0.3863
3417.00,0.3871
3416.00,0.3880
3415.00,0.3889
3414.00,0.3898
3413.00,0.3907
3412.00,0.3916
3411.00,0.3925
3410.00,0.3934
3409.00,0.3943
3408.00,0.3953
3407.00,0.3963
3406.00,0.3973
3405.00,0.3983
3404.00,0.3993
3403.00,0.4003
3402.00,0.4014
3401.00,0.4024
3400.00,0.4034
3399.00,0.4044
3398.00,0.4054
3397.00,0.4064
3396.00,0.4074
3395.00,0.4085
3394.00,0.4095
3393.00,0.4106
3392.00,0.4117
3391.00,0.4128
3390.00,0.4138
3389.00,0.4149
3388.00,0.4159
3387.00,0.4170
3386.00,0.4180
3385.00,0.4191
3384.00,0.4202
3383.00,0.4214
3382.00,0.4226
3381.00,0.4238
3380.00,0.4250
3379.00,0.4262
3378.00,0.4274
3377.00,0.4287
3376.00,0.4300
3375.00,0.4313
3374.00,0.4326
3373.00,0.4339
3372.00,0.4353
3371.00,0.4366
3370.00,0.4380
3369.00,0.4394
3368.00,0.4409
3367.00,0.4423
3366.00,0.4438
3365.00,0.4452
3364.00,0.4467
3363.00,0.4482
3362.00,0.4498
3361.00,0.4513
3360.00,0.4529
3359.00,0.4545
3358.00,0.4562
3357.00,0.4578
3356.00,0.4594
3355.00,0.4610
3354.00,0.4626
3353.00,0.4642
3352.00,0.4658
3351.00,0.4674
3350.00,0.4690
3349.00,0.4707
3348.00,0.4722
3347.00,0.4738
3346.00,0.4753
3345.00,0.4768
3344.00,0.4783
3343.00,0.4798
3342.00,0.4812
3341.00,0.4826
3340.00,0.4839
3339.00,0.4852
3338.00,0.4863
3337.00,0.4873
3336.00,0.4883
3335.00,0.4892
3334.00,0.4900
3333.00,0.4908
3332.00,0.4914
3331.00,0.4919
3330.00,0.4924
3329.00,0.4928
3328.00,0.4932
3327.00,0.4934
3326.00,0.4935
3325.00,0.4935
3324.00,0.4935
3323.00,0.4934
3322.00,0.4931
3321.00,0.4928
3320.00,0.4924
3319.00,0.4919
3318.00,0.4914
3317.00,0.4909
3316.00,0.4904
3315.00,0.4898
3314.00,0.4890
3313.00,0.4883
3312.00,0.4875
3311.00,0.4867
3310.00,0.4859
3309.00,0.4852
3308.00,0.4844
3307.00,0.4836
3306.00,0.4828
3305.00,0.4820
3304.00,0.4812
3303.00,0.4804
3302.00,0.4796
3301.00,0.4788
3300.00,0.4781
3299.00,0.4774
3298.00,0.4768
3297.00,0.4762
3296.00,0.4756
3295.00,0.4750
3294.00,0.4744
3293.00,0.4739
3292.00,0.4734
3291.00,0.4730
3290.00,0.4726
3289.00,0.4722
3288.00,0.4720
3287.00,0.4718
3286.00,0.4717
3285.00,0.4716
3284.00,0.4716
3283.00,0.4716
3282.00,0.4716
3281.00,0.4717
3280.00,0.4717
3279.00,0.4718
3278.00,0.4719
3277.00,0.4722
3276.00,0.4726
3275.00,0.4730
3274.00,0.4733
3273.00,0.4737
3272.00,0.4740
3271.00,0.4744
3270.00,0.4749
3269.00,0.4754
3268.00,0.4759
3267.00,0.4764
3266.00,0.4769
3265.00,0.4774
3264.00,0.4780
3263.00,0.4785
3262.00,0.4790
3261.00,0.4795
3260.00,0.4801
3259.00,0.4807
3258.00,0.4813
3257.00,0.4819
3256.00,0.4825
3255.00,0.4830
3254.00,0.4835
3253.00,0.4840
3252.00,0.4846
3251.00,0.4851
3250.00,0.4856
3249.00,0.4861
3248.00,0.4866
3247.00,0.4871
3246.00,0.4875
3245.00,0.4879
3244.00,0.4882
3243.00,0.4885
3242.00,0.4888
3241.00,0.4892
3240.00,0.4895
3239.00,0.4899
3238.00,0.4901
3237.00,0.4904
3236.00,0.4906
3235.00,0.4908
3234.00,0.4911
3233.00,0.4912
3232.00,0.4913
3231.00,0.4913
3230.00,0.4913
3229.00,0.4913
3228.00,0.4913
3227.00,0.4913
3226.00,0.4913
3225.00,0.4913
3224.00,0.4912
3223.00,0.4910
3222.00,0.4908
3221.00,0.4906
3220.00,0.4905
3219.00,0.4904
3218.00,0.4903
3217.00,0.4901
3216.00,0.4899
3215.00,0.4897
3214.00,0.4895
3213.00,0.4893
3212.00,0.4891
3211.00,0.4889
3210.00,0.4887
3209.00,0.4886
3208.00,0.4885
3207.00,0.4884
3206.00,0.4883
3205.00,0.4881
3204.00,0.4880
3203.00,0.4878
3202.00,0.4876
3201.00,0.4873
3200.00,0.4870
3199.00,0.4868
3198.00,0.4866
3197.00,0.4864
3196.00,0.4861
3195.00,0.4858
3194.00,0.4854
3193.00,0.4850
3192.00,0.4846
3191.00,0.4842
3190.00,0.4838
3189.00,0.4833
3188.00,0.4829
3187.00,0.4824
3186.00,0.4820
3185.00,0.4814
3184.00,0.4808
3183.00,0.4802
3182.00,0.4797
3181.00,0.4791
3180.00,0.4786
3179.00,0.4781
3178.00,0.4775
3177.00,0.4769
3176.00,0.4762
3175.00,0.4756
3174.00,0.4750
3173.00,0.4744
3172.00,0.4738
3171.00,0.4731
3170.00,0.4724
3169.00,0.4717
3168.00,0.4710
3167.00,0.4702
3166.00,0.4695
3165.00,0.4687
3164.00,0.4679
3163.00,0.4671
3162.00,0.4664
3161.00,0.4656
3160.00,0.4649
3159.00,0.4641
3158.00,0.4634
3157.00,0.4628
3156.00,0.4621
3155.00,0.4614
3154.00,0.4607
3153.00,0.4600
3152.00,0.4592
3151.00,0.4585
3150.00,0.4577
3149.00,0.4570
3148.00,0.4563
3147.00,0.4556
3146.00,0.4550
3145.00,0.4545
3144.00,0.4540
3143.00,0.4535
3142.00,0.4531
3141.00,0.4527
3140.00,0.4523
3139.00,0.4519
3138.00,0.4515
3137.00,0.4511
3136.00,0.4508
3135.00,0.4504
3134.00,0.4500
3133.00,0.4497
3132.00,0.4494
3131.00,0.4492
3130.00,0.4491
3129.00,0.4490
3128.00,0.4491
3127.00,0.4491
3126.00,0.4492
3125.00,0.4493
3124.00,0.4494
3123.00,0.4495
3122.00,0.4497
3121.00,0.4498
3120.00,0.4501
3119.00,0.4504
3118.00,0.4507
3117.00,0.4510
3116.00,0.4514
3115.00,0.4519
3114.00,0.4524
3113.00,0.4529
3112.00,0.4535
3111.00,0.4542
3110.00,0.4549
3109.00,0.4558
3108.00,0.4567
3107.00,0.4576
3106.00,0.4586
3105.00,0.4595
3104.00,0.4604
3103.00,0.4613
3102.00,0.4622
3101.00,0.4630
3100.00,0.4640
3099.00,0.4650
3098.00,0.4661
3097.00,0.4673
3096.00,0.4686
3095.00,0.4700
3094.00,0.4716
3093.00,0.4734
3092.00,0.4754
3091.00,0.4777
3090.00,0.4801
3089.00,0.4828
3088.00,0.4855
3087.00,0.4884
3086.00,0.4913
3085.00,0.4942
3084.00,0.4973
3083.00,0.5004
3082.00,0.5038
3081.00,0.5074
3080.00,0.5113
3079.00,0.5153
3078.00,0.5196
3077.00,0.5240
3076.00,0.5285
3075.00,0.5331
3074.00,0.5377
3073.00,0.5424
3072.00,0.5471
3071.00,0.5517
3070.00,0.5563
3069.00,0.5610
3068.00,0.5656
3067.00,0.5703
3066.00,0.5748
3065.00,0.5792
3064.00,0.5833
3063.00,0.5871
3062.00,0.5906
3061.00,0.5938
3060.00,0.5968
3059.00,0.5995
3058.00,0.6021
3057.00,0.6048
3056.00,0.6077
3055.00,0.6107
3054.00,0.6140
3053.00,0.6175
3052.00,0.6212
3051.00,0.6251
3050.00,0.6293
3049.00,0.6337
3048.00,0.6383
3047.00,0.6432
3046.00,0.6481
3045.00,0.6530
3044.00,0.6579
3043.00,0.6628
3042.00,0.6676
3041.00,0.6724
3040.00,0.6772
3039.00,0.6821
3038.00,0.6872
3037.00,0.6926
3036.00,0.6983
3035.00,0.7045
3034.00,0.7112
3033.00,0.7184
3032.00,0.7261
3031.00,0.7342
3030.00,0.7427
3029.00,0.7515
3028.00,0.7607
3027.00,0.7703
3026.00,0.7804
3025.00,0.7908
3024.00,0.8014
3023.00,0.8123
3022.00,0.8236
3021.00,0.8353
3020.00,0.8472
3019.00,0.8593
3018.00,0.8715
3017.00,0.8838
3016.00,0.8962
3015.00,0.9085
3014.00,0.9210
3013.00,0.9338
3012.00,0.9469
3011.00,0.9604
3010.00,0.9746
3009.00,0.9895
3008.00,1.0052
3007.00,1.0216
3006.00,1.0385
3005.00,1.0559
3004.00,1.0739
3003.00,1.0924
3002.00,1.1116
3001.00,1.1316
3000.00,1.1525
2999.00,1.1744
2998.00,1.1978
2997.00,1.2230
2996.00,1.2508
2995.00,1.2817
2994.00,1.3165
2993.00,1.3555
2992.00,1.3992
2991.00,1.4482
2990.00,1.5030
2989.00,1.5644
2988.00,1.6326
2987.00,1.7077
2986.00,1.7903
2985.00,1.8811
2984.00,1.9818
2983.00,2.0943
2982.00,2.2207
2981.00,2.3628
2980.00,2.5226
2979.00,2.7015
2978.00,2.8971
2977.00,3.0953
2976.00,3.2752
2975.00,3.4365
2974.00,3.6145
2973.00,3.8621
2972.00,4.1978
2971.00,4.3875
2970.00,4.3147
2969.00,4.0729
2968.00,3.8971
2967.00,3.7630
2966.00,3.6906
2965.00,3.6700
2964.00,3.6871
2963.00,3.7459
2962.00,3.8050
2961.00,3.8171
2960.00,3.8131
2959.00,3.8407
2958.00,3.9153
2957.00,4.0052
2956.00,4.0579
2955.00,4.0158
2954.00,3.9200
2953.00,3.8721
2952.00,3.9704
2951.00,4.3987
2950.00,4.4377
2949.00,4.3489
2948.00,4.0758
2947.00,4.0871
2946.00,4.1268
2945.00,4.2967
2944.00,4.2473
2943.00,3.9192
2942.00,3.6691
2941.00,3.5668
2940.00,3.5555
2939.00,3.5990
2938.00,3.6620
2937.00,3.7257
2936.00,3.8212
2935.00,3.9696
2934.00,4.1104
2933.00,4.2837
2932.00,4.3363
2931.00,4.1244
2930.00,3.9925
2929.00,3.9820
2928.00,4.0237
2927.00,3.9386
2926.00,3.8568
2925.00,3.8740
2924.00,4.0013
2923.00,4.2798
2922.00,4.5941
2921.00,4.2892
2920.00,4.1247
2919.00,4.1640
2918.00,4.2864
2917.00,4.0652
2916.00,3.8917
2915.00,3.9165
2914.00,4.2541
2913.00,4.5303
2912.00,4.4219
2911.00,4.2087
2910.00,4.0956
2909.00,3.9524
2908.00,3.8900
2907.00,4.0763
2906.00,4.1466
2905.00,3.9525
2904.00,3.8001
2903.00,3.8127
2902.00,3.9068
2901.00,3.9826
2900.00,4.0479
2899.00,4.0662
2898.00,4.0844
2897.00,4.1906
2896.00,4.3961
2895.00,4.5736
2894.00,4.4678
2893.00,4.3734
2892.00,4.3039
2891.00,4.0312
2890.00,3.8640
2889.00,3.8625
2888.00,4.0880
2887.00,4.1307
2886.00,3.9588
2885.00,3.8144
2884.00,3.8036
2883.00,3.8748
2882.00,3.9898
2881.00,4.0055
2880.00,3.9405
2879.00,3.9287
2878.00,4.0307
2877.00,4.1980
2876.00,4.5269
2875.00,4.7788
2874.00,4.9498
2873.00,4.5699
2872.00,4.2016
2871.00,4.0311
2870.00,3.9686
2869.00,3.9259
2868.00,3.8087
2867.00,3.7473
2866.00,3.7863
2865.00,3.9167
2864.00,4.1909
2863.00,4.3896
2862.00,4.1709
2861.00,3.9908
2860.00,3.9932
2859.00,4.1646
2858.00,4.4187
2857.00,4.4792
2856.00,4.2136
2855.00,4.0377
2854.00,4.0402
2853.00,4.2027
2852.00,4.5151
2851.00,4.6846
2850.00,4.5185
2849.00,4.4849
2848.00,4.3829
2847.00,4.0547
2846.00,3.8623
2845.00,3.8618
2844.00,4.0352
2843.00,4.1741
2842.00,4.1887
2841.00,4.1193
2840.00,3.9706
2839.00,3.7129
2838.00,3.4399
2837.00,3.2039
2836.00,3.0027
2835.00,2.8200
2834.00,2.6444
2833.00,2.4759
2832.00,2.3194
2831.00,2.1784
2830.00,2.0533
2829.00,1.9429
2828.00,1.8458
2827.00,1.7597
2826.00,1.6821
2825.00,1.6111
2824.00,1.5460
2823.00,1.4866
2822.00,1.4323
2821.00,1.3824
2820.00,1.3364
2819.00,1.2938
2818.00,1.2545
2817.00,1.2180
2816.00,1.1840
2815.00,1.1523
2814.00,1.1225
2813.00,1.0946
2812.00,1.0684
2811.00,1.0436
2810.00,1.0199
2809.00,0.9973
2808.00,0.9758
2807.00,0.9553
2806.00,0.9359
2805.00,0.9175
2804.00,0.8999
2803.00,0.8833
2802.00,0.8674
2801.00,0.8523
2800.00,0.8380
2799.00,0.8244
2798.00,0.8115
2797.00,0.7990
2796.00,0.7870
2795.00,0.7754
2794.00,0.7642
2793.00,0.7533
2792.00,0.7426
2791.00,0.7321
2790.00,0.7219
2789.00,0.7119
2788.00,0.7021
2787.00,0.6926
2786.00,0.6832
2785.00,0.6741
2784.00,0.6653
2783.00,0.6568
2782.00,0.6487
2781.00,0.6409
2780.00,0.6333
2779.00,0.6261
2778.00,0.6191
2777.00,0.6126
2776.00,0.6064
2775.00,0.6006
2774.00,0.5951
2773.00,0.5900
2772.00,0.5852
2771.00,0.5808
2770.00,0.5767
2769.00,0.5730
2768.00,0.5697
2767.00,0.5667
2766.00,0.5641
2765.00,0.5617
2764.00,0.5597
2763.00,0.5578
2762.00,0.5562
2761.00,0.5547
2760.00,0.5533
2759.00,0.5521
2758.00,0.5508
2757.00,0.5496
2756.00,0.5484
2755.00,0.5474
2754.00,0.5465
2753.00,0.5458
2752.00,0.5453
2751.00,0.5451
2750.00,0.5450
2749.00,0.5451
2748.00,0.5454
2747.00,0.5459
2746.00,0.5467
2745.00,0.5477
2744.00,0.5491
2743.00,0.5508
2742.00,0.5529
2741.00,0.5555
2740.00,0.5585
2739.00,0.5621
2738.00,0.5662
2737.00,0.5708
2736.00,0.5758
2735.00,0.5811
2734.00,0.5867
2733.00,0.5920
2732.00,0.5969
2731.00,0.6010
2730.00,0.6041
2729.00,0.6060
2728.00,0.6069
2727.00,0.6068
2726.00,0.6058
2725.00,0.6041
2724.00,0.6020
2723.00,0.5995
2722.00,0.5967
2721.00,0.5935
2720.00,0.5900
2719.00,0.5862
2718.00,0.5821
2717.00,0.5778
2716.00,0.5732
2715.00,0.5685
2714.00,0.5638
2713.00,0.5592
2712.00,0.5548
2711.00,0.5509
2710.00,0.5473
2709.00,0.5442
2708.00,0.5415
2707.00,0.5393
2706.00,0.5374
2705.00,0.5358
2704.00,0.5345
2703.00,0.5335
2702.00,0.5328
2701.00,0.5323
2700.00,0.5321
2699.00,0.5322
2698.00,0.5325
2697.00,0.5328
2696.00,0.5334
2695.00,0.5340
2694.00,0.5348
2693.00,0.5356
2692.00,0.5366
2691.00,0.5376
2690.00,0.5385
2689.00,0.5393
2688.00,0.5401
2687.00,0.5409
2686.00,0.5415
2685.00,0.5420
2684.00,0.5424
2683.00,0.5427
2682.00,0.5430
2681.00,0.5433
2680.00,0.5436
2679.00,0.5439
2678.00,0.5442
2677.00,0.5446
2676.00,0.5450
2675.00,0.5454
2674.00,0.5458
2673.00,0.5462
2672.00,0.5463
2671.00,0.5463
2670.00,0.5461
