Created as New Dataset,
cm-1,A
4000.00,0.3959
3999.00,0.3955
3998.00,0.3952
3997.00,0.3949
3996.00,0.3945
3995.00,0.3942
3994.00,0.3938
3993.00,0.3935
3992.00,0.3931
3991.00,0.3927
3990.00,0.3923
3989.00,0.3919
3988.00,0.3915
3987.00,0.3911
3986.00,0.3907
3985.00,0.3903
3984.00,0.3900
3983.00,0.3896
3982.00,0.3892
3981.00,0.3888
3980.00,0.3884
3979.00,0.3881
3978.00,0.3878
3977.00,0.3875
3976.00,0.3873
3975.00,0.3871
3974.00,0.3870
3973.00,0.3868
3972.00,0.3865
3971.00,0.3863
3970.00,0.3861
3969.00,0.3859
3968.00,0.3857
3967.00,0.3856
3966.00,0.3854
3965.00,0.3852
3964.00,0.3849
3963.00,0.3847
3962.00,0.3845
3961.00,0.3843
3960.00,0.3841
3959.00,0.3839
3958.00,0.3837
3957.00,0.3835
3956.00,0.3833
3955.00,0.3831
3954.00,0.3830
3953.00,0.3828
3952.00,0.3826
3951.00,0.3824
3950.00,0.3823
3949.00,0.3821
3948.00,0.3820
3947.00,0.3819
3946.00,0.3818
3945.00,0.3816
3944.00,0.3815
3943.00,0.3813
3942.00,0.3813
3941.00,0.3812
3940.00,0.3812
3939.00,0.3811
3938.00,0.3810
3937.00,0.3809
3936.00,0.3808
3935.00,0.3807
3934.00,0.3808
3933.00,0.3808
3932.00,0.3808
3931.00,0.3808
3930.00,0.3807
3929.00,0.3807
3928.00,0.3806
3927.00,0.3806
3926.00,0.3805
3925.00,0.3805
3924.00,0.3804
3923.00,0.3803
3922.00,0.3802
3921.00,0.3801
3920.00,0.3801
3919.00,0.3802
3918.00,0.3801
3917.00,0.3801
3916.00,0.3800
3915.00,0.3799
3914.00,0.3798
3913.00,0.3798
3912.00,0.3798
3911.00,0.3798
3910.00,0.3797
3909.00,0.3797
3908.00,0.3796
3907.00,0.3796
3906.00,0.3795
3905.00,0.3796
3904.00,0.3796
3903.00,0.3797
3902.00,0.3797
3901.00,0.3798
3900.00,0.3798
3899.00,0.3798
3898.00,0.3797
3897.00,0.3796
3896.00,0.3795
3895.00,0.3793
3894.00,0.3792
3893.00,0.3791
3892.00,0.3790
3891.00,0.3789
3890.00,0.3788
3889.00,0.3786
3888.00,0.3784
3887.00,0.3783
3886.00,0.3783
3885.00,0.3784
3884.00,0.3784
3883.00,0.3782
3882.00,0.3780
3881.00,0.3779
3880.00,0.3778
3879.00,0.3777
3878.00,0.3776
3877.00,0.3775
3876.00,0.3775
3875.00,0.3775
3874.00,0.3775
3873.00,0.3774
3872.00,0.3772
3871.00,0.3771
3870.00,0.3771
3869.00,0.3770
3868.00,0.3769
3867.00,0.3767
3866.00,0.3766
3865.00,0.3766
3864.00,0.3766
3863.00,0.3766
3862.00,0.3764
3861.00,0.3762
3860.00,0.3761
3859.00,0.3761
3858.00,0.3761
3857.00,0.3760
3856.00,0.3758
3855.00,0.3756
3854.00,0.3756
3853.00,0.3756
3852.00,0.3755
3851.00,0.3753
3850.00,0.3750
3849.00,0.3748
3848.00,0.3747
3847.00,0.3746
3846.00,0.3745
3845.00,0.3744
3844.00,0.3744
3843.00,0.3745
3842.00,0.3746
3841.00,0.3747
3840.00,0.3747
3839.00,0.3747
3838.00,0.3746
3837.00,0.3746
3836.00,0.3745
3835.00,0.3744
3834.00,0.3743
3833.00,0.3742
3832.00,0.3742
3831.00,0.3740
3830.00,0.3739
3829.00,0.3737
3828.00,0.3735
3827.00,0.3735
3826.00,0.3735
3825.00,0.3735
3824.00,0.3734
3823.00,0.3732
3822.00,0.3731
3821.00,0.3731
3820.00,0.3730
3819.00,0.3728
3818.00,0.3725
3817.00,0.3722
3816.00,0.3720
3815.00,0.3718
3814.00,0.3715
3813.00,0.3711
3812.00,0.3709
3811.00,0.3707
3810.00,0.3706
3809.00,0.3704
3808.00,0.3703
3807.00,0.3703
3806.00,0.3703
3805.00,0.3703
3804.00,0.3701
3803.00,0.3700
3802.00,0.3699
3801.00,0.3698
3800.00,0.3697
3799.00,0.3695
3798.00,0.3692
3797.00,0.3690
3796.00,0.3688
3795.00,0.3685
3794.00,0.3683
3793.00,0.3680
3792.00,0.3678
3791.00,0.3676
3790.00,0.3674
3789.00,0.3672
3788.00,0.3670
3787.00,0.3669
3786.00,0.3667
3785.00,0.3666
3784.00,0.3664
3783.00,0.3662
3782.00,0.3660
3781.00,0.3657
3780.00,0.3655
3779.00,0.3654
3778.00,0.3652
3777.00,0.3650
3776.00,0.3648
3775.00,0.3646
3774.00,0.3644
3773.00,0.3642
3772.00,0.3640
3771.00,0.3638
3770.00,0.3636
3769.00,0.3636
3768.00,0.3635
3767.00,0.3635
3766.00,0.3634
3765.00,0.3634
3764.00,0.3634
3763.00,0.3633
3762.00,0.3632
3761.00,0.3630
3760.00,0.3629
3759.00,0.3628
3758.00,0.3627
3757.00,0.3626
3756.00,0.3625
3755.00,0.3624
3754.00,0.3623
3753.00,0.3622
3752.00,0.3620
3751.00,0.3618
3750.00,0.3617
3749.00,0.3615
3748.00,0.3614
3747.00,0.3611
3746.00,0.3608
3745.00,0.3606
3744.00,0.3605
3743.00,0.3603
3742.00,0.3600
3741.00,0.3598
3740.00,0.3597
3739.00,0.3596
3738.00,0.3596
3737.00,0.3595
3736.00,0.3594
3735.00,0.3593
3734.00,0.3592
3733.00,0.3591
3732.00,0.3590
3731.00,0.3589
3730.00,0.3588
3729.00,0.3586
3728.00,0.3584
3727.00,0.3583
3726.00,0.3582
3725.00,0.3580
3724.00,0.3578
3723.00,0.3576
3722.00,0.3575
3721.00,0.3574
3720.00,0.3572
3719.00,0.3570
3718.00,0.3569
3717.00,0.3567
3716.00,0.3566
3715.00,0.3565
3714.00,0.3563
3713.00,0.3562
3712.00,0.3561
3711.00,0.3560
3710.00,0.3559
3709.00,0.3558
3708.00,0.3558
3707.00,0.3558
3706.00,0.3558
3705.00,0.3558
3704.00,0.3557
3703.00,0.3557
3702.00,0.3557
3701.00,0.3558
3700.00,0.3558
3699.00,0.3558
3698.00,0.3558
3697.00,0.3559
3696.00,0.3560
3695.00,0.3561
3694.00,0.3563
3693.00,0.3564
3692.00,0.3566
3691.00,0.3567
3690.00,0.3567
3689.00,0.3568
3688.00,0.3569
3687.00,0.3568
3686.00,0.3567
3685.00,0.3566
3684.00,0.3565
3683.00,0.3564
3682.00,0.3562
3681.00,0.3561
3680.00,0.3561
3679.00,0.3561
3678.00,0.3561
3677.00,0.3560
3676.00,0.3559
3675.00,0.3559
3674.00,0.3559
3673.00,0.3557
3672.00,0.3556
3671.00,0.3555
3670.00,0.3555
3669.00,0.3556
3668.00,0.3555
3667.00,0.3555
3666.00,0.3555
3665.00,0.3556
3664.00,0.3558
3663.00,0.3559
3662.00,0.3560
3661.00,0.3562
3660.00,0.3563
3659.00,0.3565
3658.00,0.3567
3657.00,0.3570
3656.00,0.3574
3655.00,0.3577
3654.00,0.3580
3653.00,0.3583
3652.00,0.3586
3651.00,0.3589
3650.00,0.3592
3649.00,0.3595
3648.00,0.3597
3647.00,0.3598
3646.00,0.3598
3645.00,0.3597
3644.00,0.3596
3643.00,0.3596
3642.00,0.3596
3641.00,0.3597
3640.00,0.3598
3639.00,0.3599
3638.00,0.3601
3637.00,0.3602
3636.00,0.3604
3635.00,0.3607
3634.00,0.3609
3633.00,0.3612
3632.00,0.3614
3631.00,0.3617
3630.00,0.3621
3629.00,0.3626
3628.00,0.3632
3627.00,0.3637
3626.00,0.3640
3625.00,0.3643
3624.00,0.3647
3623.00,0.3649
3622.00,0.3650
3621.00,0.3650
3620.00,0.3649
3619.00,0.3648
3618.00,0.3648
3617.00,0.3647
3616.00,0.3646
3615.00,0.3645
3614.00,0.3644
3613.00,0.3644
3612.00,0.3644
3611.00,0.3644
3610.00,0.3645
3609.00,0.3646
3608.00,0.3646
3607.00,0.3646
3606.00,0.3645
3605.00,0.3643
3604.00,0.3641
3603.00,0.3639
3602.00,0.3636
3601.00,0.3633
3600.00,0.3629
3599.00,0.3625
3598.00,0.3620
3597.00,0.3615
3596.00,0.3611
3595.00,0.3607
3594.00,0.3603
3593.00,0.3599
3592.00,0.3596
3591.00,0.3594
3590.00,0.3592
3589.00,0.3591
3588.00,0.3591
3587.00,0.3591
3586.00,0.3592
3585.00,0.3592
3584.00,0.3593
3583.00,0.3593
3582.00,0.3595
3581.00,0.3596
3580.00,0.3598
3579.00,0.3599
3578.00,0.3600
3577.00,0.3600
3576.00,0.3601
3575.00,0.3603
3574.00,0.3604
3573.00,0.3606
3572.00,0.3608
3571.00,0.3610
3570.00,0.3613
3569.00,0.3615
3568.00,0.3618
3567.00,0.3621
3566.00,0.3624
3565.00,0.3627
3564.00,0.3629
3563.00,0.3632
3562.00,0.3636
3561.00,0.3639
3560.00,0.3642
3559.00,0.3645
3558.00,0.3649
3557.00,0.3653
3556.00,0.3657
3555.00,0.3662
3554.00,0.3666
3553.00,0.3671
3552.00,0.3676
3551.00,0.3681
3550.00,0.3687
3549.00,0.3692
3548.00,0.3697
3547.00,0.3702
3546.00,0.3707
3545.00,0.3712
3544.00,0.3717
3543.00,0.3721
3542.00,0.3726
3541.00,0.3731
3540.00,0.3735
3539.00,0.3739
3538.00,0.3744
3537.00,0.3747
3536.00,0.3751
3535.00,0.3755
3534.00,0.3758
3533.00,0.3762
3532.00,0.3766
3531.00,0.3770
3530.00,0.3775
3529.00,0.3779
3528.00,0.3783
3527.00,0.3788
3526.00,0.3792
3525.00,0.3797
3524.00,0.3801
3523.00,0.3805
3522.00,0.3809
3521.00,0.3814
3520.00,0.3820
3519.00,0.3826
3518.00,0.3831
3517.00,0.3837
3516.00,0.3843
3515.00,0.3849
3514.00,0.3855
3513.00,0.3861
3512.00,0.3867
3511.00,0.3873
3510.00,0.3879
3509.00,0.3884
3508.00,0.3890
3507.00,0.3896
3506.00,0.3902
3505.00,0.3908
3504.00,0.3914
3503.00,0.3921
3502.00,0.3928
3501.00,0.3935
3500.00,0.3942
3499.00,0.3948
3498.00,0.3955
3497.00,0.3962
3496.00,0.3969
3495.00,0.3976
3494.00,0.3983
3493.00,0.3990
3492.00,0.3998
3491.00,0.4006
3490.00,0.4015
3489.00,0.4024
3488.00,0.4032
3487.00,0.4041
3486.00,0.4049
3485.00,0.4056
3484.00,0.4064
3483.00,0.4071
3482.00,0.4077
3481.00,0.4084
3480.00,0.4090
3479.00,0.4096
3478.00,0.4102
3477.00,0.4108
3476.00,0.4113
3475.00,0.4118
3474.00,0.4123
3473.00,0.4130
3472.00,0.4137
3471.00,0.4144
3470.00,0.4151
3469.00,0.4158
3468.00,0.4164
3467.00,0.4170
3466.00,0.4176
3465.00,0.4181
3464.00,0.4187
3463.00,0.4193
3462.00,0.4200
3461.00,0.4207
3460.00,0.4214
3459.00,0.4221
3458.00,0.4228
3457.00,0.4235
3456.00,0.4241
3455.00,0.4248
3454.00,0.4255
3453.00,0.4263
3452.00,0.4271
3451.00,0.4279
3450.00,0.4289
3449.00,0.4298
3448.00,0.4307
3447.00,0.4315
3446.00,0.4323
3445.00,0.4331
3444.00,0.4340
3443.00,0.4349
3442.00,0.4358
3441.00,0.4367
3440.00,0.4375
3439.00,0.4383
3438.00,0.4391
3437.00,0.4399
3436.00,0.4408
3435.00,0.4417
3434.00,0.4426
3433.00,0.4435
3432.00,0.4443
3431.00,0.4452
3430.00,0.4460
3429.00,0.4469
3428.00,0.4477
3427.00,0.4486
3426.00,0.4495
3425.00,0.4504
3424.00,0.4513
3423.00,0.4522
3422.00,0.4531
3421.00,0.4541
3420.00,0.4551
3419.00,0.4562
3418.00,0.4572
3417.00,0.4584
3416.00,0.4596
3415.00,0.4607
3414.00,0.4618
3413.00,0.4628
3412.00,0.4639
3411.00,0.4650
3410.00,0.4660
3409.00,0.4670
3408.00,0.4680
3407.00,0.4690
3406.00,0.4702
3405.00,0.4714
3404.00,0.4726
3403.00,0.4737
3402.00,0.4748
3401.00,0.4760
3400.00,0.4772
3399.00,0.4784
3398.00,0.4796
3397.00,0.4808
3396.00,0.4821
3395.00,0.4834
3394.00,0.4846
3393.00,0.4858
3392.00,0.4870
3391.00,0.4882
3390.00,0.4894
3389.00,0.4907
3388.00,0.4920
3387.00,0.4933
3386.00,0.4947
3385.00,0.4960
3384.00,0.4974
3383.00,0.4987
3382.00,0.5000
3381.00,0.5014
3380.00,0.5029
3379.00,0.5043
3378.00,0.5058
3377.00,0.5072
3376.00,0.5087
3375.00,0.5102
3374.00,0.5116
3373.00,0.5130
3372.00,0.5146
3371.00,0.5162
3370.00,0.5179
3369.00,0.5196
3368.00,0.5212
3367.00,0.5228
3366.00,0.5244
3365.00,0.5261
3364.00,0.5278
3363.00,0.5295
3362.00,0.5313
3361.00,0.5330
3360.00,0.5348
3359.00,0.5367
3358.00,0.5385
3357.00,0.5403
3356.00,0.5420
3355.00,0.5437
3354.00,0.5455
3353.00,0.5473
3352.00,0.5492
3351.00,0.5510
3350.00,0.5528
3349.00,0.5544
3348.00,0.5560
3347.00,0.5576
3346.00,0.5592
3345.00,0.5608
3344.00,0.5624
3343.00,0.5640
3342.00,0.5654
3341.00,0.5667
3340.00,0.5680
3339.00,0.5692
3338.00,0.5703
3337.00,0.5714
3336.00,0.5723
3335.00,0.5730
3334.00,0.5737
3333.00,0.5743
3332.00,0.5749
3331.00,0.5755
3330.00,0.5759
3329.00,0.5763
3328.00,0.5765
3327.00,0.5766
3326.00,0.5766
3325.00,0.5766
3324.00,0.5765
3323.00,0.5763
3322.00,0.5759
3321.00,0.5754
3320.00,0.5748
3319.00,0.5741
3318.00,0.5734
3317.00,0.5728
3316.00,0.5722
3315.00,0.5714
3314.00,0.5706
3313.00,0.5697
3312.00,0.5687
3311.00,0.5678
3310.00,0.5669
3309.00,0.5661
3308.00,0.5651
3307.00,0.5641
3306.00,0.5631
3305.00,0.5620
3304.00,0.5609
3303.00,0.5599
3302.00,0.5590
3301.00,0.5583
3300.00,0.5575
3299.00,0.5567
3298.00,0.5560
3297.00,0.5553
3296.00,0.5547
3295.00,0.5541
3294.00,0.5534
3293.00,0.5528
3292.00,0.5523
3291.00,0.5518
3290.00,0.5515
3289.00,0.5511
3288.00,0.5509
3287.00,0.5506
3286.00,0.5504
3285.00,0.5502
3284.00,0.5500
3283.00,0.5498
3282.00,0.5496
3281.00,0.5496
3280.00,0.5497
3279.00,0.5498
3278.00,0.5500
3277.00,0.5502
3276.00,0.5503
3275.00,0.5505
3274.00,0.5506
3273.00,0.5508
3272.00,0.5511
3271.00,0.5514
3270.00,0.5519
3269.00,0.5523
3268.00,0.5528
3267.00,0.5532
3266.00,0.5536
3265.00,0.5540
3264.00,0.5544
3263.00,0.5549
3262.00,0.5554
3261.00,0.5559
3260.00,0.5564
3259.00,0.5569
3258.00,0.5575
3257.00,0.5581
3256.00,0.5587
3255.00,0.5592
3254.00,0.5597
3253.00,0.5601
3252.00,0.5604
3251.00,0.5608
3250.00,0.5612
3249.00,0.5616
3248.00,0.5620
3247.00,0.5624
3246.00,0.5628
3245.00,0.5630
3244.00,0.5632
3243.00,0.5633
3242.00,0.5635
3241.00,0.5636
3240.00,0.5639
3239.00,0.5641
3238.00,0.5642
3237.00,0.5643
3236.00,0.5643
3235.00,0.5642
3234.00,0.5642
3233.00,0.5641
3232.00,0.5640
3231.00,0.5639
3230.00,0.5637
3229.00,0.5635
3228.00,0.5632
3227.00,0.5630
3226.00,0.5628
3225.00,0.5626
3224.00,0.5624
3223.00,0.5621
3222.00,0.5618
3221.00,0.5614
3220.00,0.5610
3219.00,0.5606
3218.00,0.5603
3217.00,0.5599
3216.00,0.5595
3215.00,0.5590
3214.00,0.5586
3213.00,0.5582
3212.00,0.5577
3211.00,0.5572
3210.00,0.5567
3209.00,0.5562
3208.00,0.5558
3207.00,0.5554
3206.00,0.5551
3205.00,0.5546
3204.00,0.5541
3203.00,0.5535
3202.00,0.5529
3201.00,0.5523
3200.00,0.5517
3199.00,0.5510
3198.00,0.5504
3197.00,0.5498
3196.00,0.5493
3195.00,0.5487
3194.00,0.5481
3193.00,0.5475
3192.00,0.5468
3191.00,0.5461
3190.00,0.5454
3189.00,0.5446
3188.00,0.5439
3187.00,0.5431
3186.00,0.5424
3185.00,0.5417
3184.00,0.5409
3183.00,0.5401
3182.00,0.5393
3181.00,0.5383
3180.00,0.5374
3179.00,0.5365
3178.00,0.5356
3177.00,0.5347
3176.00,0.5338
3175.00,0.5328
3174.00,0.5317
3173.00,0.5307
3172.00,0.5296
3171.00,0.5285
3170.00,0.5274
3169.00,0.5264
3168.00,0.5255
3167.00,0.5245
3166.00,0.5235
3165.00,0.5225
3164.00,0.5214
3163.00,0.5203
3162.00,0.5193
3161.00,0.5182
3160.00,0.5172
3159.00,0.5162
3158.00,0.5152
3157.00,0.5142
3156.00,0.5131
3155.00,0.5121
3154.00,0.5111
3153.00,0.5102
3152.00,0.5092
3151.00,0.5082
3150.00,0.5072
3149.00,0.5062
3148.00,0.5054
3147.00,0.5045
3146.00,0.5036
3145.00,0.5028
3144.00,0.5019
3143.00,0.5011
3142.00,0.5003
3141.00,0.4995
3140.00,0.4988
3139.00,0.4980
3138.00,0.4973
3137.00,0.4967
3136.00,0.4960
3135.00,0.4953
3134.00,0.4947
3133.00,0.4942
3132.00,0.4937
3131.00,0.4934
3130.00,0.4930
3129.00,0.4926
3128.00,0.4923
3127.00,0.4921
3126.00,0.4920
3125.00,0.4919
3124.00,0.4918
3123.00,0.4917
3122.00,0.4916
3121.00,0.4916
3120.00,0.4917
3119.00,0.4919
3118.00,0.4920
3117.00,0.4920
3116.00,0.4921
3115.00,0.4923
3114.00,0.4925
3113.00,0.4928
3112.00,0.4932
3111.00,0.4935
3110.00,0.4939
3109.00,0.4943
3108.00,0.4949
3107.00,0.4955
3106.00,0.4961
3105.00,0.4968
3104.00,0.4975
3103.00,0.4982
3102.00,0.4990
3101.00,0.4997
3100.00,0.5005
3099.00,0.5014
3098.00,0.5023
3097.00,0.5033
3096.00,0.5044
3095.00,0.5057
3094.00,0.5071
3093.00,0.5087
3092.00,0.5104
3091.00,0.5123
3090.00,0.5145
3089.00,0.5169
3088.00,0.5194
3087.00,0.5219
3086.00,0.5245
3085.00,0.5271
3084.00,0.5299
3083.00,0.5328
3082.00,0.5359
3081.00,0.5392
3080.00,0.5426
3079.00,0.5463
3078.00,0.5500
3077.00,0.5540
3076.00,0.5581
3075.00,0.5623
3074.00,0.5666
3073.00,0.5708
3072.00,0.5751
3071.00,0.5795
3070.00,0.5839
3069.00,0.5883
3068.00,0.5927
3067.00,0.5970
3066.00,0.6012
3065.00,0.6053
3064.00,0.6092
3063.00,0.6127
3062.00,0.6160
3061.00,0.6191
3060.00,0.6219
3059.00,0.6245
3058.00,0.6270
3057.00,0.6297
3056.00,0.6325
3055.00,0.6356
3054.00,0.6388
3053.00,0.6422
3052.00,0.6458
3051.00,0.6495
3050.00,0.6535
3049.00,0.6577
3048.00,0.6620
3047.00,0.6665
3046.00,0.6711
3045.00,0.6759
3044.00,0.6806
3043.00,0.6854
3042.00,0.6901
3041.00,0.6947
3040.00,0.6994
3039.00,0.7042
3038.00,0.7092
3037.00,0.7144
3036.00,0.7200
3035.00,0.7259
3034.00,0.7323
3033.00,0.7392
3032.00,0.7465
3031.00,0.7544
3030.00,0.7627
3029.00,0.7714
3028.00,0.7804
3027.00,0.7897
3026.00,0.7994
3025.00,0.8095
3024.00,0.8199
3023.00,0.8306
3022.00,0.8417
3021.00,0.8531
3020.00,0.8649
3019.00,0.8769
3018.00,0.8891
3017.00,0.9013
3016.00,0.9134
3015.00,0.9254
3014.00,0.9377
3013.00,0.9503
3012.00,0.9633
3011.00,0.9768
3010.00,0.9908
3009.00,1.0054
3008.00,1.0207
3007.00,1.0367
3006.00,1.0535
3005.00,1.0707
3004.00,1.0886
3003.00,1.1072
3002.00,1.1265
3001.00,1.1467
3000.00,1.1676
2999.00,1.1895
2998.00,1.2128
2997.00,1.2382
2996.00,1.2664
2995.00,1.2983
2994.00,1.3340
2993.00,1.3738
2992.00,1.4179
2991.00,1.4669
2990.00,1.5216
2989.00,1.5825
2988.00,1.6502
2987.00,1.7255
2986.00,1.8090
2985.00,1.9009
2984.00,2.0019
2983.00,2.1141
2982.00,2.2405
2981.00,2.3820
2980.00,2.5366
2979.00,2.7006
2978.00,2.8710
2977.00,3.0448
2976.00,3.2229
2975.00,3.4192
2974.00,3.6477
2973.00,3.8436
2972.00,3.9046
2971.00,3.8764
2970.00,3.9510
2969.00,4.2452
2968.00,4.1812
2967.00,3.9918
2966.00,3.8450
2965.00,3.8985
2964.00,3.9153
2963.00,3.8262
2962.00,3.7624
2961.00,3.7814
2960.00,3.8952
2959.00,4.0454
2958.00,4.1305
2957.00,4.1864
2956.00,4.3328
2955.00,4.5685
2954.00,4.5562
2953.00,4.3823
2952.00,4.2625
2951.00,4.3223
2950.00,4.5401
2949.00,4.3548
2948.00,4.1963
2947.00,4.1337
2946.00,4.2219
2945.00,4.1660
2944.00,4.0849
2943.00,4.0604
2942.00,4.0123
2941.00,3.9106
2940.00,3.8541
2939.00,3.9155
2938.00,4.1235
2937.00,4.2933
2936.00,4.1465
2935.00,3.9747
2934.00,3.8742
2933.00,3.8466
2932.00,3.8519
2931.00,3.8836
2930.00,3.8442
2929.00,3.7625
2928.00,3.7505
2927.00,3.8651
2926.00,4.1339
2925.00,4.4225
2924.00,4.2139
2923.00,4.0566
2922.00,4.0636
2921.00,4.2209
2920.00,4.1451
2919.00,4.0554
2918.00,4.1390
2917.00,4.5683
2916.00,4.7025
2915.00,4.3695
2914.00,4.1005
2913.00,4.0615
2912.00,4.0645
2911.00,4.1139
2910.00,4.3159
2909.00,4.3915
2908.00,4.0928
2907.00,3.8839
2906.00,3.8293
2905.00,3.9204
2904.00,4.0528
2903.00,4.1193
2902.00,3.9683
2901.00,3.7928
2900.00,3.7213
2899.00,3.7741
2898.00,3.9628
2897.00,4.3534
2896.00,4.1733
2895.00,3.9863
2894.00,3.8692
2893.00,3.9296
2892.00,3.9279
2891.00,3.9555
2890.00,4.1028
2889.00,4.2057
2888.00,4.1366
2887.00,4.0634
2886.00,4.1177
2885.00,4.2826
2884.00,4.2211
2883.00,4.0671
2882.00,4.0321
2881.00,4.1519
2880.00,4.2475
2879.00,4.3308
2878.00,4.3383
2877.00,4.2516
2876.00,4.1327
2875.00,4.1563
2874.00,4.2703
2873.00,4.0761
2872.00,3.8783
2871.00,3.7825
2870.00,3.8162
2869.00,3.9410
2868.00,4.1229
2867.00,4.1979
2866.00,4.1271
2865.00,4.0990
2864.00,4.2001
2863.00,4.3398
2862.00,4.2973
2861.00,4.0964
2860.00,3.9295
2859.00,3.8669
2858.00,3.8942
2857.00,3.9759
2856.00,4.0623
2855.00,4.1007
2854.00,4.0614
2853.00,3.9836
2852.00,3.9398
2851.00,3.9041
2850.00,3.7916
2849.00,3.6963
2848.00,3.6735
2847.00,3.7028
2846.00,3.7198
2845.00,3.7588
2844.00,3.9120
2843.00,4.2209
2842.00,4.4440
2841.00,4.6073
2840.00,4.4959
2839.00,3.9439
2838.00,3.5185
2837.00,3.2155
2836.00,2.9920
2835.00,2.8051
2834.00,2.6401
2833.00,2.4829
2832.00,2.3331
2831.00,2.1954
2830.00,2.0716
2829.00,1.9612
2828.00,1.8630
2827.00,1.7759
2826.00,1.6981
2825.00,1.6276
2824.00,1.5632
2823.00,1.5045
2822.00,1.4511
2821.00,1.4022
2820.00,1.3570
2819.00,1.3152
2818.00,1.2765
2817.00,1.2407
2816.00,1.2072
2815.00,1.1757
2814.00,1.1459
2813.00,1.1176
2812.00,1.0910
2811.00,1.0661
2810.00,1.0426
2809.00,1.0204
2808.00,0.9993
2807.00,0.9793
2806.00,0.9603
2805.00,0.9423
2804.00,0.9251
2803.00,0.9086
2802.00,0.8930
2801.00,0.8780
2800.00,0.8637
2799.00,0.8500
2798.00,0.8371
2797.00,0.8247
2796.00,0.8128
2795.00,0.8012
2794.00,0.7899
2793.00,0.7788
2792.00,0.7681
2791.00,0.7576
2790.00,0.7474
2789.00,0.7374
2788.00,0.7277
2787.00,0.7182
2786.00,0.7090
2785.00,0.7000
2784.00,0.6913
2783.00,0.6828
2782.00,0.6746
2781.00,0.6666
2780.00,0.6591
2779.00,0.6519
2778.00,0.6451
2777.00,0.6387
2776.00,0.6326
2775.00,0.6269
2774.00,0.6214
2773.00,0.6163
2772.00,0.6115
2771.00,0.6071
2770.00,0.6032
2769.00,0.5995
2768.00,0.5962
2767.00,0.5933
2766.00,0.5906
2765.00,0.5883
2764.00,0.5864
2763.00,0.5847
2762.00,0.5831
2761.00,0.5817
2760.00,0.5804
2759.00,0.5792
2758.00,0.5781
2757.00,0.5769
2756.00,0.5758
2755.00,0.5747
2754.00,0.5737
2753.00,0.5730
2752.00,0.5724
2751.00,0.5721
2750.00,0.5719
2749.00,0.5720
2748.00,0.5723
2747.00,0.5728
2746.00,0.5736
2745.00,0.5747
2744.00,0.5760
2743.00,0.5776
2742.00,0.5796
2741.00,0.5820
2740.00,0.5848
2739.00,0.5882
2738.00,0.5921
2737.00,0.5965
2736.00,0.6014
2735.00,0.6067
2734.00,0.6122
2733.00,0.6175
2732.00,0.6223
2731.00,0.6264
2730.00,0.6294
2729.00,0.6313
2728.00,0.6321
2727.00,0.6319
2726.00,0.6309
2725.00,0.6292
2724.00,0.6271
2723.00,0.6247
2722.00,0.6220
2721.00,0.6190
2720.00,0.6157
2719.00,0.6120
2718.00,0.6081
2717.00,0.6038
2716.00,0.5993
2715.00,0.5945
2714.00,0.5897
2713.00,0.5851
2712.00,0.5808
2711.00,0.5769
2710.00,0.5734
2709.00,0.5702
2708.00,0.5674
2707.00,0.5651
2706.00,0.5631
2705.00,0.5615
2704.00,0.5603
2703.00,0.5592
2702.00,0.5584
2701.00,0.5578
2700.00,0.5575
2699.00,0.5575
2698.00,0.5577
2697.00,0.5580
2696.00,0.5585
2695.00,0.5592
2694.00,0.5601
2693.00,0.5609
2692.00,0.5618
2691.00,0.5626
2690.00,0.5634
2689.00,0.5642
2688.00,0.5649
2687.00,0.5656
2686.00,0.5662
2685.00,0.5666
2684.00,0.5670
2683.00,0.5673
2682.00,0.5676
2681.00,0.5679
2680.00,0.5682
2679.00,0.5685
2678.00,0.5688
2677.00,0.5693
2676.00,0.5698
2675.00,0.5702
2674.00,0.5705
2673.00,0.5707
2672.00,0.5708
2671.00,0.5707
2670.00,0.5704
