Created as New Dataset,
cm-1,A
4000.00,1.9701
3999.00,1.9700
3998.00,1.9700
3997.00,1.9697
3996.00,1.9693
3995.00,1.9692
3994.00,1.9694
3993.00,1.9696
3992.00,1.9695
3991.00,1.9692
3990.00,1.9692
3989.00,1.9695
3988.00,1.9694
3987.00,1.9684
3986.00,1.9665
3985.00,1.9646
3984.00,1.9639
3983.00,1.9650
3982.00,1.9674
3981.00,1.9700
3980.00,1.9718
3979.00,1.9721
3978.00,1.9712
3977.00,1.9696
3976.00,1.9673
3975.00,1.9642
3974.00,1.9607
3973.00,1.9578
3972.00,1.9564
3971.00,1.9563
3970.00,1.9570
3969.00,1.9578
3968.00,1.9588
3967.00,1.9599
3966.00,1.9609
3965.00,1.9614
3964.00,1.9608
3963.00,1.9595
3962.00,1.9581
3961.00,1.9575
3960.00,1.9588
3959.00,1.9620
3958.00,1.9655
3957.00,1.9675
3956.00,1.9667
3955.00,1.9641
3954.00,1.9613
3953.00,1.9596
3952.00,1.9590
3951.00,1.9587
3950.00,1.9586
3949.00,1.9588
3948.00,1.9598
3947.00,1.9610
3946.00,1.9621
3945.00,1.9626
3944.00,1.9626
3943.00,1.9623
3942.00,1.9619
3941.00,1.9617
3940.00,1.9613
3939.00,1.9600
3938.00,1.9575
3937.00,1.9543
3936.00,1.9519
3935.00,1.9511
3934.00,1.9518
3933.00,1.9528
3932.00,1.9534
3931.00,1.9540
3930.00,1.9549
3929.00,1.9559
3928.00,1.9571
3927.00,1.9581
3926.00,1.9587
3925.00,1.9587
3924.00,1.9584
3923.00,1.9587
3922.00,1.9592
3921.00,1.9590
3920.00,1.9576
3919.00,1.9559
3918.00,1.9550
3917.00,1.9555
3916.00,1.9566
3915.00,1.9577
3914.00,1.9580
3913.00,1.9576
3912.00,1.9569
3911.00,1.9565
3910.00,1.9564
3909.00,1.9560
3908.00,1.9550
3907.00,1.9539
3906.00,1.9530
3905.00,1.9522
3904.00,1.9513
3903.00,1.9518
3902.00,1.9549
3901.00,1.9595
3900.00,1.9625
3899.00,1.9621
3898.00,1.9595
3897.00,1.9567
3896.00,1.9549
3895.00,1.9543
3894.00,1.9551
3893.00,1.9568
3892.00,1.9573
3891.00,1.9550
3890.00,1.9512
3889.00,1.9487
3888.00,1.9492
3887.00,1.9511
3886.00,1.9523
3885.00,1.9524
3884.00,1.9532
3883.00,1.9549
3882.00,1.9558
3881.00,1.9544
3880.00,1.9511
3879.00,1.9486
3878.00,1.9485
3877.00,1.9507
3876.00,1.9534
3875.00,1.9551
3874.00,1.9553
3873.00,1.9552
3872.00,1.9558
3871.00,1.9559
3870.00,1.9540
3869.00,1.9518
3868.00,1.9523
3867.00,1.9551
3866.00,1.9566
3865.00,1.9541
3864.00,1.9491
3863.00,1.9449
3862.00,1.9432
3861.00,1.9434
3860.00,1.9446
3859.00,1.9459
3858.00,1.9473
3857.00,1.9491
3856.00,1.9516
3855.00,1.9548
3854.00,1.9565
3853.00,1.9561
3852.00,1.9557
3851.00,1.9563
3850.00,1.9569
3849.00,1.9562
3848.00,1.9542
3847.00,1.9518
3846.00,1.9498
3845.00,1.9486
3844.00,1.9475
3843.00,1.9460
3842.00,1.9442
3841.00,1.9429
3840.00,1.9426
3839.00,1.9428
3838.00,1.9431
3837.00,1.9436
3836.00,1.9441
3835.00,1.9442
3834.00,1.9440
3833.00,1.9437
3832.00,1.9441
3831.00,1.9457
3830.00,1.9481
3829.00,1.9504
3828.00,1.9513
3827.00,1.9495
3826.00,1.9452
3825.00,1.9408
3824.00,1.9390
3823.00,1.9409
3822.00,1.9441
3821.00,1.9447
3820.00,1.9421
3819.00,1.9391
3818.00,1.9384
3817.00,1.9398
3816.00,1.9414
3815.00,1.9424
3814.00,1.9434
3813.00,1.9441
3812.00,1.9434
3811.00,1.9415
3810.00,1.9398
3809.00,1.9397
3808.00,1.9404
3807.00,1.9396
3806.00,1.9375
3805.00,1.9366
3804.00,1.9388
3803.00,1.9424
3802.00,1.9439
3801.00,1.9419
3800.00,1.9395
3799.00,1.9391
3798.00,1.9400
3797.00,1.9398
3796.00,1.9382
3795.00,1.9369
3794.00,1.9374
3793.00,1.9384
3792.00,1.9380
3791.00,1.9356
3790.00,1.9326
3789.00,1.9309
3788.00,1.9310
3787.00,1.9323
3786.00,1.9334
3785.00,1.9337
3784.00,1.9340
3783.00,1.9351
3782.00,1.9370
3781.00,1.9382
3780.00,1.9376
3779.00,1.9357
3778.00,1.9339
3777.00,1.9331
3776.00,1.9330
3775.00,1.9326
3774.00,1.9320
3773.00,1.9321
3772.00,1.9331
3771.00,1.9338
3770.00,1.9329
3769.00,1.9308
3768.00,1.9292
3767.00,1.9287
3766.00,1.9289
3765.00,1.9294
3764.00,1.9311
3763.00,1.9345
3762.00,1.9380
3761.00,1.9391
3760.00,1.9371
3759.00,1.9339
3758.00,1.9316
3757.00,1.9305
3756.00,1.9302
3755.00,1.9300
3754.00,1.9299
3753.00,1.9299
3752.00,1.9306
3751.00,1.9324
3750.00,1.9347
3749.00,1.9360
3748.00,1.9365
3747.00,1.9374
3746.00,1.9393
3745.00,1.9404
3744.00,1.9395
3743.00,1.9387
3742.00,1.9392
3741.00,1.9395
3740.00,1.9387
3739.00,1.9377
3738.00,1.9378
3737.00,1.9389
3736.00,1.9400
3735.00,1.9408
3734.00,1.9416
3733.00,1.9418
3732.00,1.9408
3731.00,1.9391
3730.00,1.9377
3729.00,1.9371
3728.00,1.9362
3727.00,1.9346
3726.00,1.9329
3725.00,1.9324
3724.00,1.9329
3723.00,1.9331
3722.00,1.9321
3721.00,1.9303
3720.00,1.9288
3719.00,1.9281
3718.00,1.9281
3717.00,1.9286
3716.00,1.9295
3715.00,1.9310
3714.00,1.9326
3713.00,1.9337
3712.00,1.9338
3711.00,1.9329
3710.00,1.9320
3709.00,1.9326
3708.00,1.9349
3707.00,1.9381
3706.00,1.9403
3705.00,1.9407
3704.00,1.9398
3703.00,1.9389
3702.00,1.9388
3701.00,1.9391
3700.00,1.9387
3699.00,1.9374
3698.00,1.9354
3697.00,1.9332
3696.00,1.9313
3695.00,1.9305
3694.00,1.9309
3693.00,1.9318
3692.00,1.9330
3691.00,1.9350
3690.00,1.9381
3689.00,1.9416
3688.00,1.9449
3687.00,1.9480
3686.00,1.9508
3685.00,1.9528
3684.00,1.9529
3683.00,1.9508
3682.00,1.9473
3681.00,1.9432
3680.00,1.9391
3679.00,1.9358
3678.00,1.9347
3677.00,1.9358
3676.00,1.9370
3675.00,1.9378
3674.00,1.9406
3673.00,1.9464
3672.00,1.9528
3671.00,1.9567
3670.00,1.9571
3669.00,1.9562
3668.00,1.9559
3667.00,1.9553
3666.00,1.9531
3665.00,1.9498
3664.00,1.9466
3663.00,1.9445
3662.00,1.9436
3661.00,1.9434
3660.00,1.9438
3659.00,1.9451
3658.00,1.9471
3657.00,1.9482
3656.00,1.9473
3655.00,1.9452
3654.00,1.9439
3653.00,1.9447
3652.00,1.9470
3651.00,1.9496
3650.00,1.9518
3649.00,1.9539
3648.00,1.9563
3647.00,1.9589
3646.00,1.9609
3645.00,1.9617
3644.00,1.9608
3643.00,1.9577
3642.00,1.9527
3641.00,1.9475
3640.00,1.9441
3639.00,1.9433
3638.00,1.9445
3637.00,1.9465
3636.00,1.9487
3635.00,1.9502
3634.00,1.9503
3633.00,1.9497
3632.00,1.9502
3631.00,1.9527
3630.00,1.9558
3629.00,1.9570
3628.00,1.9569
3627.00,1.9580
3626.00,1.9607
3625.00,1.9630
3624.00,1.9637
3623.00,1.9632
3622.00,1.9628
3621.00,1.9630
3620.00,1.9632
3619.00,1.9626
3618.00,1.9614
3617.00,1.9601
3616.00,1.9591
3615.00,1.9583
3614.00,1.9576
3613.00,1.9574
3612.00,1.9579
3611.00,1.9590
3610.00,1.9601
3609.00,1.9611
3608.00,1.9621
3607.00,1.9631
3606.00,1.9635
3605.00,1.9626
3604.00,1.9605
3603.00,1.9582
3602.00,1.9564
3601.00,1.9559
3600.00,1.9569
3599.00,1.9591
3598.00,1.9610
3597.00,1.9612
3596.00,1.9599
3595.00,1.9583
3594.00,1.9577
3593.00,1.9581
3592.00,1.9593
3591.00,1.9609
3590.00,1.9629
3589.00,1.9651
3588.00,1.9670
3587.00,1.9684
3586.00,1.9694
3585.00,1.9702
3584.00,1.9701
3583.00,1.9691
3582.00,1.9677
3581.00,1.9663
3580.00,1.9651
3579.00,1.9641
3578.00,1.9634
3577.00,1.9634
3576.00,1.9645
3575.00,1.9664
3574.00,1.9684
3573.00,1.9695
3572.00,1.9693
3571.00,1.9679
3570.00,1.9668
3569.00,1.9676
3568.00,1.9701
3567.00,1.9729
3566.00,1.9742
3565.00,1.9734
3564.00,1.9716
3563.00,1.9700
3562.00,1.9690
3561.00,1.9685
3560.00,1.9682
3559.00,1.9687
3558.00,1.9697
3557.00,1.9706
3556.00,1.9705
3555.00,1.9701
3554.00,1.9708
3553.00,1.9731
3552.00,1.9759
3551.00,1.9770
3550.00,1.9760
3549.00,1.9743
3548.00,1.9736
3547.00,1.9741
3546.00,1.9743
3545.00,1.9726
3544.00,1.9693
3543.00,1.9666
3542.00,1.9666
3541.00,1.9696
3540.00,1.9736
3539.00,1.9764
3538.00,1.9773
3537.00,1.9769
3536.00,1.9765
3535.00,1.9765
3534.00,1.9767
3533.00,1.9767
3532.00,1.9761
3531.00,1.9752
3530.00,1.9743
3529.00,1.9745
3528.00,1.9761
3527.00,1.9788
3526.00,1.9815
3525.00,1.9828
3524.00,1.9822
3523.00,1.9802
3522.00,1.9781
3521.00,1.9772
3520.00,1.9779
3519.00,1.9794
3518.00,1.9809
3517.00,1.9819
3516.00,1.9823
3515.00,1.9820
3514.00,1.9810
3513.00,1.9797
3512.00,1.9788
3511.00,1.9790
3510.00,1.9804
3509.00,1.9825
3508.00,1.9844
3507.00,1.9860
3506.00,1.9872
3505.00,1.9884
3504.00,1.9897
3503.00,1.9905
3502.00,1.9909
3501.00,1.9907
3500.00,1.9900
3499.00,1.9886
3498.00,1.9871
3497.00,1.9862
3496.00,1.9862
3495.00,1.9866
3494.00,1.9865
3493.00,1.9864
3492.00,1.9870
3491.00,1.9887
3490.00,1.9906
3489.00,1.9916
3488.00,1.9910
3487.00,1.9892
3486.00,1.9874
3485.00,1.9870
3484.00,1.9887
3483.00,1.9918
3482.00,1.9945
3481.00,1.9950
3480.00,1.9934
3479.00,1.9914
3478.00,1.9908
3477.00,1.9922
3476.00,1.9947
3475.00,1.9972
3474.00,1.9997
3473.00,2.0026
3472.00,2.0052
3471.00,2.0062
3470.00,2.0051
3469.00,2.0026
3468.00,2.0002
3467.00,1.9987
3466.00,1.9983
3465.00,1.9990
3464.00,2.0005
3463.00,2.0022
3462.00,2.0035
3461.00,2.0046
3460.00,2.0060
3459.00,2.0078
3458.00,2.0089
3457.00,2.0087
3456.00,2.0076
3455.00,2.0068
3454.00,2.0069
3453.00,2.0080
3452.00,2.0099
3451.00,2.0123
3450.00,2.0147
3449.00,2.0161
3448.00,2.0158
3447.00,2.0141
3446.00,2.0128
3445.00,2.0138
3444.00,2.0170
3443.00,2.0212
3442.00,2.0247
3441.00,2.0266
3440.00,2.0274
3439.00,2.0272
3438.00,2.0266
3437.00,2.0261
3436.00,2.0259
3435.00,2.0255
3434.00,2.0244
3433.00,2.0229
3432.00,2.0216
3431.00,2.0210
3430.00,2.0212
3429.00,2.0219
3428.00,2.0228
3427.00,2.0237
3426.00,2.0240
3425.00,2.0241
3424.00,2.0245
3423.00,2.0256
3422.00,2.0272
3421.00,2.0286
3420.00,2.0296
3419.00,2.0298
3418.00,2.0293
3417.00,2.0287
3416.00,2.0286
3415.00,2.0293
3414.00,2.0301
3413.00,2.0304
3412.00,2.0297
3411.00,2.0286
3410.00,2.0280
3409.00,2.0289
3408.00,2.0309
3407.00,2.0322
3406.00,2.0311
3405.00,2.0282
3404.00,2.0255
3403.00,2.0245
3402.00,2.0248
3401.00,2.0252
3400.00,2.0251
3399.00,2.0250
3398.00,2.0249
3397.00,2.0249
3396.00,2.0246
3395.00,2.0242
3394.00,2.0238
3393.00,2.0239
3392.00,2.0246
3391.00,2.0255
3390.00,2.0261
3389.00,2.0259
3388.00,2.0245
3387.00,2.0223
3386.00,2.0198
3385.00,2.0179
3384.00,2.0170
3383.00,2.0165
3382.00,2.0159
3381.00,2.0158
3380.00,2.0173
3379.00,2.0201
3378.00,2.0221
3377.00,2.0217
3376.00,2.0190
3375.00,2.0158
3374.00,2.0138
3373.00,2.0138
3372.00,2.0152
3371.00,2.0164
3370.00,2.0159
3369.00,2.0141
3368.00,2.0128
3367.00,2.0129
3366.00,2.0136
3365.00,2.0137
3364.00,2.0132
3363.00,2.0131
3362.00,2.0138
3361.00,2.0148
3360.00,2.0158
3359.00,2.0165
3358.00,2.0168
3357.00,2.0162
3356.00,2.0146
3355.00,2.0124
3354.00,2.0104
3353.00,2.0088
3352.00,2.0079
3351.00,2.0075
3350.00,2.0071
3349.00,2.0061
3348.00,2.0046
3347.00,2.0034
3346.00,2.0033
3345.00,2.0044
3344.00,2.0060
3343.00,2.0074
3342.00,2.0080
3341.00,2.0077
3340.00,2.0067
3339.00,2.0054
3338.00,2.0038
3337.00,2.0020
3336.00,2.0002
3335.00,1.9985
3334.00,1.9967
3333.00,1.9950
3332.00,1.9937
3331.00,1.9933
3330.00,1.9942
3329.00,1.9963
3328.00,1.9989
3327.00,2.0009
3326.00,2.0018
3325.00,2.0023
3324.00,2.0036
3323.00,2.0052
3322.00,2.0062
3321.00,2.0059
3320.00,2.0047
3319.00,2.0033
3318.00,2.0013
3317.00,1.9989
3316.00,1.9970
3315.00,1.9963
3314.00,1.9965
3313.00,1.9967
3312.00,1.9965
3311.00,1.9960
3310.00,1.9956
3309.00,1.9956
3308.00,1.9962
3307.00,1.9975
3306.00,1.9986
3305.00,1.9987
3304.00,1.9976
3303.00,1.9959
3302.00,1.9946
3301.00,1.9942
3300.00,1.9946
3299.00,1.9954
3298.00,1.9959
3297.00,1.9957
3296.00,1.9950
3295.00,1.9945
3294.00,1.9941
3293.00,1.9936
3292.00,1.9928
3291.00,1.9918
3290.00,1.9912
3289.00,1.9911
3288.00,1.9912
3287.00,1.9915
3286.00,1.9921
3285.00,1.9936
3284.00,1.9966
3283.00,2.0003
3282.00,2.0030
3281.00,2.0034
3280.00,2.0017
3279.00,1.9988
3278.00,1.9958
3277.00,1.9934
3276.00,1.9925
3275.00,1.9937
3274.00,1.9961
3273.00,1.9982
3272.00,1.9994
3271.00,2.0004
3270.00,2.0015
3269.00,2.0018
3268.00,2.0005
3267.00,1.9979
3266.00,1.9948
3265.00,1.9921
3264.00,1.9901
3263.00,1.9889
3262.00,1.9886
3261.00,1.9894
3260.00,1.9916
3259.00,1.9947
3258.00,1.9977
3257.00,1.9992
3256.00,1.9991
3255.00,1.9977
3254.00,1.9959
3253.00,1.9943
3252.00,1.9939
3251.00,1.9950
3250.00,1.9971
3249.00,1.9992
3248.00,2.0005
3247.00,2.0009
3246.00,2.0005
3245.00,1.9999
3244.00,2.0000
3243.00,2.0013
3242.00,2.0031
3241.00,2.0041
3240.00,2.0038
3239.00,2.0022
3238.00,2.0000
3237.00,1.9976
3236.00,1.9963
3235.00,1.9967
3234.00,1.9982
3233.00,1.9993
3232.00,1.9992
3231.00,1.9993
3230.00,2.0009
3229.00,2.0041
3228.00,2.0078
3227.00,2.0107
3226.00,2.0120
3225.00,2.0114
3224.00,2.0092
3223.00,2.0062
3222.00,2.0033
3221.00,2.0009
3220.00,1.9992
3219.00,1.9983
3218.00,1.9982
3217.00,1.9985
3216.00,1.9988
3215.00,1.9993
3214.00,2.0003
3213.00,2.0018
3212.00,2.0032
3211.00,2.0039
3210.00,2.0043
3209.00,2.0047
3208.00,2.0053
3207.00,2.0056
3206.00,2.0047
3205.00,2.0027
3204.00,2.0004
3203.00,1.9989
3202.00,1.9984
3201.00,1.9981
3200.00,1.9973
3199.00,1.9960
3198.00,1.9951
3197.00,1.9949
3196.00,1.9953
3195.00,1.9956
3194.00,1.9954
3193.00,1.9947
3192.00,1.9940
3191.00,1.9934
3190.00,1.9923
3189.00,1.9905
3188.00,1.9886
3187.00,1.9871
3186.00,1.9861
3185.00,1.9850
3184.00,1.9836
3183.00,1.9823
3182.00,1.9813
3181.00,1.9802
3180.00,1.9789
3179.00,1.9780
3178.00,1.9774
3177.00,1.9759
3176.00,1.9731
3175.00,1.9702
3174.00,1.9688
3173.00,1.9690
3172.00,1.9696
3171.00,1.9698
3170.00,1.9695
3169.00,1.9692
3168.00,1.9687
3167.00,1.9678
3166.00,1.9664
3165.00,1.9646
3164.00,1.9625
3163.00,1.9602
3162.00,1.9584
3161.00,1.9581
3160.00,1.9597
3159.00,1.9622
3158.00,1.9640
3157.00,1.9637
3156.00,1.9611
3155.00,1.9572
3154.00,1.9539
3153.00,1.9522
3152.00,1.9516
3151.00,1.9504
3150.00,1.9480
3149.00,1.9454
3148.00,1.9442
3147.00,1.9450
3146.00,1.9463
3145.00,1.9463
3144.00,1.9445
3143.00,1.9416
3142.00,1.9386
3141.00,1.9361
3140.00,1.9344
3139.00,1.9335
3138.00,1.9337
3137.00,1.9344
3136.00,1.9348
3135.00,1.9337
3134.00,1.9313
3133.00,1.9286
3132.00,1.9268
3131.00,1.9255
3130.00,1.9240
3129.00,1.9219
3128.00,1.9200
3127.00,1.9194
3126.00,1.9200
3125.00,1.9210
3124.00,1.9212
3123.00,1.9205
3122.00,1.9193
3121.00,1.9180
3120.00,1.9172
3119.00,1.9172
3118.00,1.9178
3117.00,1.9185
3116.00,1.9183
3115.00,1.9167
3114.00,1.9143
3113.00,1.9121
3112.00,1.9109
3111.00,1.9109
3110.00,1.9112
3109.00,1.9109
3108.00,1.9093
3107.00,1.9070
3106.00,1.9054
3105.00,1.9059
3104.00,1.9079
3103.00,1.9092
3102.00,1.9083
3101.00,1.9057
3100.00,1.9033
3099.00,1.9023
3098.00,1.9021
3097.00,1.9019
3096.00,1.9012
3095.00,1.8999
3094.00,1.8983
3093.00,1.8968
3092.00,1.8959
3091.00,1.8960
3090.00,1.8965
3089.00,1.8966
3088.00,1.8959
3087.00,1.8946
3086.00,1.8934
3085.00,1.8927
3084.00,1.8925
3083.00,1.8926
3082.00,1.8922
3081.00,1.8913
3080.00,1.8903
3079.00,1.8899
3078.00,1.8897
3077.00,1.8893
3076.00,1.8886
3075.00,1.8882
3074.00,1.8881
3073.00,1.8882
3072.00,1.8887
3071.00,1.8896
3070.00,1.8900
3069.00,1.8888
3068.00,1.8861
3067.00,1.8835
3066.00,1.8822
3065.00,1.8819
3064.00,1.8819
3063.00,1.8815
3062.00,1.8805
3061.00,1.8790
3060.00,1.8776
3059.00,1.8773
3058.00,1.8780
3057.00,1.8790
3056.00,1.8794
3055.00,1.8792
3054.00,1.8784
3053.00,1.8769
3052.00,1.8751
3051.00,1.8736
3050.00,1.8731
3049.00,1.8733
3048.00,1.8737
3047.00,1.8744
3046.00,1.8754
3045.00,1.8766
3044.00,1.8772
3043.00,1.8772
3042.00,1.8766
3041.00,1.8759
3040.00,1.8753
3039.00,1.8751
3038.00,1.8756
3037.00,1.8768
3036.00,1.8780
3035.00,1.8782
3034.00,1.8772
3033.00,1.8753
3032.00,1.8731
3031.00,1.8713
3030.00,1.8698
3029.00,1.8683
3028.00,1.8669
3027.00,1.8664
3026.00,1.8676
3025.00,1.8699
3024.00,1.8720
3023.00,1.8729
3022.00,1.8722
3021.00,1.8704
3020.00,1.8680
3019.00,1.8661
3018.00,1.8651
3017.00,1.8649
3016.00,1.8650
3015.00,1.8649
3014.00,1.8646
3013.00,1.8648
3012.00,1.8655
3011.00,1.8660
3010.00,1.8658
3009.00,1.8650
3008.00,1.8640
3007.00,1.8631
3006.00,1.8625
3005.00,1.8624
3004.00,1.8628
3003.00,1.8633
3002.00,1.8632
3001.00,1.8624
3000.00,1.8615
2999.00,1.8609
2998.00,1.8608
2997.00,1.8605
2996.00,1.8600
2995.00,1.8596
2994.00,1.8591
2993.00,1.8584
2992.00,1.8576
2991.00,1.8574
2990.00,1.8584
2989.00,1.8603
2988.00,1.8624
2987.00,1.8640
2986.00,1.8646
2985.00,1.8644
2984.00,1.8640
2983.00,1.8639
2982.00,1.8641
2981.00,1.8644
2980.00,1.8649
2979.00,1.8657
2978.00,1.8669
2977.00,1.8681
2976.00,1.8690
2975.00,1.8695
2974.00,1.8695
2973.00,1.8690
2972.00,1.8684
2971.00,1.8684
2970.00,1.8694
2969.00,1.8706
2968.00,1.8711
2967.00,1.8706
2966.00,1.8699
2965.00,1.8699
2964.00,1.8707
2963.00,1.8713
2962.00,1.8712
2961.00,1.8703
2960.00,1.8696
2959.00,1.8702
2958.00,1.8719
2957.00,1.8742
2956.00,1.8764
2955.00,1.8787
2954.00,1.8807
2953.00,1.8818
2952.00,1.8816
2951.00,1.8801
2950.00,1.8777
2949.00,1.8751
2948.00,1.8730
2947.00,1.8723
2946.00,1.8731
2945.00,1.8746
2944.00,1.8756
2943.00,1.8755
2942.00,1.8744
2941.00,1.8730
2940.00,1.8718
2939.00,1.8710
2938.00,1.8706
2937.00,1.8712
2936.00,1.8730
2935.00,1.8763
2934.00,1.8799
2933.00,1.8823
2932.00,1.8831
2931.00,1.8833
2930.00,1.8838
2929.00,1.8844
2928.00,1.8845
2927.00,1.8843
2926.00,1.8847
2925.00,1.8856
2924.00,1.8862
2923.00,1.8863
2922.00,1.8860
2921.00,1.8857
2920.00,1.8846
2919.00,1.8825
2918.00,1.8800
2917.00,1.8783
2916.00,1.8781
2915.00,1.8792
2914.00,1.8805
2913.00,1.8804
2912.00,1.8783
2911.00,1.8745
2910.00,1.8705
2909.00,1.8672
2908.00,1.8650
2907.00,1.8637
2906.00,1.8629
2905.00,1.8626
2904.00,1.8621
2903.00,1.8611
2902.00,1.8597
2901.00,1.8581
2900.00,1.8567
2899.00,1.8561
2898.00,1.8563
2897.00,1.8568
2896.00,1.8573
2895.00,1.8577
2894.00,1.8583
2893.00,1.8587
2892.00,1.8581
2891.00,1.8561
2890.00,1.8538
2889.00,1.8525
2888.00,1.8521
2887.00,1.8518
2886.00,1.8510
2885.00,1.8500
2884.00,1.8498
2883.00,1.8504
2882.00,1.8513
2881.00,1.8520
2880.00,1.8520
2879.00,1.8513
2878.00,1.8502
2877.00,1.8494
2876.00,1.8495
2875.00,1.8505
2874.00,1.8519
2873.00,1.8530
2872.00,1.8535
2871.00,1.8534
2870.00,1.8531
2869.00,1.8532
2868.00,1.8539
2867.00,1.8548
2866.00,1.8554
2865.00,1.8560
2864.00,1.8569
2863.00,1.8583
2862.00,1.8596
2861.00,1.8603
2860.00,1.8603
2859.00,1.8601
2858.00,1.8602
2857.00,1.8608
2856.00,1.8616
2855.00,1.8629
2854.00,1.8645
2853.00,1.8662
2852.00,1.8673
2851.00,1.8670
2850.00,1.8655
2849.00,1.8635
2848.00,1.8623
2847.00,1.8618
2846.00,1.8612
2845.00,1.8599
2844.00,1.8581
2843.00,1.8562
2842.00,1.8544
2841.00,1.8525
2840.00,1.8505
2839.00,1.8491
2838.00,1.8491
2837.00,1.8508
2836.00,1.8536
2835.00,1.8562
2834.00,1.8576
2833.00,1.8574
2832.00,1.8563
2831.00,1.8555
2830.00,1.8555
2829.00,1.8563
2828.00,1.8570
2827.00,1.8574
2826.00,1.8575
2825.00,1.8581
2824.00,1.8594
2823.00,1.8609
2822.00,1.8622
2821.00,1.8631
2820.00,1.8641
2819.00,1.8654
2818.00,1.8669
2817.00,1.8681
2816.00,1.8686
2815.00,1.8686
2814.00,1.8686
2813.00,1.8690
2812.00,1.8696
2811.00,1.8702
2810.00,1.8708
2809.00,1.8719
2808.00,1.8737
2807.00,1.8758
2806.00,1.8774
2805.00,1.8787
2804.00,1.8798
2803.00,1.8808
2802.00,1.8814
2801.00,1.8813
2800.00,1.8807
2799.00,1.8797
2798.00,1.8781
2797.00,1.8764
2796.00,1.8752
2795.00,1.8748
2794.00,1.8747
2793.00,1.8740
2792.00,1.8727
2791.00,1.8713
2790.00,1.8698
2789.00,1.8683
2788.00,1.8671
2787.00,1.8662
2786.00,1.8657
2785.00,1.8650
2784.00,1.8639
2783.00,1.8626
2782.00,1.8618
2781.00,1.8617
2780.00,1.8625
2779.00,1.8635
2778.00,1.8638
2777.00,1.8628
2776.00,1.8608
2775.00,1.8588
2774.00,1.8574
2773.00,1.8567
2772.00,1.8563
2771.00,1.8559
2770.00,1.8553
2769.00,1.8544
2768.00,1.8533
2767.00,1.8522
2766.00,1.8511
2765.00,1.8498
2764.00,1.8485
2763.00,1.8476
2762.00,1.8476
2761.00,1.8478
2760.00,1.8473
2759.00,1.8456
2758.00,1.8435
2757.00,1.8420
2756.00,1.8418
2755.00,1.8423
2754.00,1.8425
2753.00,1.8419
2752.00,1.8413
2751.00,1.8415
2750.00,1.8425
2749.00,1.8431
2748.00,1.8427
2747.00,1.8417
2746.00,1.8409
2745.00,1.8407
2744.00,1.8408
2743.00,1.8409
2742.00,1.8411
2741.00,1.8418
2740.00,1.8428
2739.00,1.8436
2738.00,1.8437
2737.00,1.8432
2736.00,1.8426
2735.00,1.8427
2734.00,1.8437
2733.00,1.8448
2732.00,1.8457
2731.00,1.8463
2730.00,1.8473
2729.00,1.8485
2728.00,1.8492
2727.00,1.8491
2726.00,1.8489
2725.00,1.8492
2724.00,1.8503
2723.00,1.8513
2722.00,1.8514
2721.00,1.8510
2720.00,1.8508
2719.00,1.8510
2718.00,1.8510
2717.00,1.8505
2716.00,1.8497
2715.00,1.8495
2714.00,1.8499
2713.00,1.8506
2712.00,1.8510
2711.00,1.8514
2710.00,1.8523
2709.00,1.8539
2708.00,1.8554
2707.00,1.8564
2706.00,1.8567
2705.00,1.8569
2704.00,1.8574
2703.00,1.8584
2702.00,1.8598
2701.00,1.8607
2700.00,1.8603
2699.00,1.8585
2698.00,1.8562
2697.00,1.8547
2696.00,1.8541
2695.00,1.8538
2694.00,1.8531
2693.00,1.8525
2692.00,1.8527
2691.00,1.8538
2690.00,1.8550
2689.00,1.8555
2688.00,1.8552
2687.00,1.8543
2686.00,1.8538
2685.00,1.8542
2684.00,1.8559
2683.00,1.8582
2682.00,1.8599
2681.00,1.8598
2680.00,1.8581
2679.00,1.8556
2678.00,1.8534
2677.00,1.8519
2676.00,1.8514
2675.00,1.8516
2674.00,1.8520
2673.00,1.8523
2672.00,1.8526
2671.00,1.8533
2670.00,1.8544
