Created as New Dataset,
cm-1,A
4000.00,0.3026
3999.00,0.3023
3998.00,0.3020
3997.00,0.3016
3996.00,0.3013
3995.00,0.3010
3994.00,0.3007
3993.00,0.3004
3992.00,0.3001
3991.00,0.2997
3990.00,0.2993
3989.00,0.2989
3988.00,0.2985
3987.00,0.2981
3986.00,0.2977
3985.00,0.2972
3984.00,0.2968
3983.00,0.2964
3982.00,0.2960
3981.00,0.2956
3980.00,0.2952
3979.00,0.2949
3978.00,0.2946
3977.00,0.2944
3976.00,0.2942
3975.00,0.2940
3974.00,0.2938
3973.00,0.2936
3972.00,0.2933
3971.00,0.2930
3970.00,0.2928
3969.00,0.2926
3968.00,0.2925
3967.00,0.2923
3966.00,0.2922
3965.00,0.2920
3964.00,0.2919
3963.00,0.2918
3962.00,0.2917
3961.00,0.2916
3960.00,0.2915
3959.00,0.2914
3958.00,0.2912
3957.00,0.2911
3956.00,0.2910
3955.00,0.2909
3954.00,0.2907
3953.00,0.2906
3952.00,0.2904
3951.00,0.2902
3950.00,0.2900
3949.00,0.2897
3948.00,0.2895
3947.00,0.2892
3946.00,0.2890
3945.00,0.2888
3944.00,0.2887
3943.00,0.2885
3942.00,0.2883
3941.00,0.2882
3940.00,0.2881
3939.00,0.2880
3938.00,0.2879
3937.00,0.2879
3936.00,0.2878
3935.00,0.2878
3934.00,0.2878
3933.00,0.2879
3932.00,0.2879
3931.00,0.2880
3930.00,0.2880
3929.00,0.2880
3928.00,0.2881
3927.00,0.2881
3926.00,0.2881
3925.00,0.2881
3924.00,0.2881
3923.00,0.2882
3922.00,0.2882
3921.00,0.2882
3920.00,0.2882
3919.00,0.2881
3918.00,0.2880
3917.00,0.2879
3916.00,0.2878
3915.00,0.2877
3914.00,0.2876
3913.00,0.2874
3912.00,0.2873
3911.00,0.2872
3910.00,0.2872
3909.00,0.2872
3908.00,0.2873
3907.00,0.2874
3906.00,0.2875
3905.00,0.2876
3904.00,0.2877
3903.00,0.2878
3902.00,0.2880
3901.00,0.2881
3900.00,0.2880
3899.00,0.2879
3898.00,0.2878
3897.00,0.2877
3896.00,0.2876
3895.00,0.2875
3894.00,0.2874
3893.00,0.2873
3892.00,0.2872
3891.00,0.2871
3890.00,0.2871
3889.00,0.2871
3888.00,0.2872
3887.00,0.2871
3886.00,0.2870
3885.00,0.2869
3884.00,0.2869
3883.00,0.2869
3882.00,0.2868
3881.00,0.2866
3880.00,0.2865
3879.00,0.2863
3878.00,0.2862
3877.00,0.2861
3876.00,0.2859
3875.00,0.2858
3874.00,0.2858
3873.00,0.2858
3872.00,0.2857
3871.00,0.2857
3870.00,0.2856
3869.00,0.2856
3868.00,0.2855
3867.00,0.2855
3866.00,0.2854
3865.00,0.2853
3864.00,0.2851
3863.00,0.2849
3862.00,0.2847
3861.00,0.2845
3860.00,0.2844
3859.00,0.2844
3858.00,0.2846
3857.00,0.2847
3856.00,0.2848
3855.00,0.2849
3854.00,0.2849
3853.00,0.2850
3852.00,0.2851
3851.00,0.2850
3850.00,0.2847
3849.00,0.2843
3848.00,0.2839
3847.00,0.2835
3846.00,0.2833
3845.00,0.2831
3844.00,0.2831
3843.00,0.2832
3842.00,0.2834
3841.00,0.2836
3840.00,0.2837
3839.00,0.2838
3838.00,0.2839
3837.00,0.2839
3836.00,0.2838
3835.00,0.2837
3834.00,0.2835
3833.00,0.2832
3832.00,0.2829
3831.00,0.2827
3830.00,0.2825
3829.00,0.2824
3828.00,0.2822
3827.00,0.2821
3826.00,0.2821
3825.00,0.2822
3824.00,0.2822
3823.00,0.2822
3822.00,0.2822
3821.00,0.2822
3820.00,0.2822
3819.00,0.2822
3818.00,0.2821
3817.00,0.2818
3816.00,0.2814
3815.00,0.2810
3814.00,0.2806
3813.00,0.2802
3812.00,0.2798
3811.00,0.2796
3810.00,0.2794
3809.00,0.2793
3808.00,0.2791
3807.00,0.2791
3806.00,0.2791
3805.00,0.2791
3804.00,0.2791
3803.00,0.2790
3802.00,0.2789
3801.00,0.2788
3800.00,0.2787
3799.00,0.2785
3798.00,0.2782
3797.00,0.2779
3796.00,0.2776
3795.00,0.2773
3794.00,0.2769
3793.00,0.2766
3792.00,0.2763
3791.00,0.2761
3790.00,0.2759
3789.00,0.2757
3788.00,0.2755
3787.00,0.2753
3786.00,0.2751
3785.00,0.2750
3784.00,0.2749
3783.00,0.2748
3782.00,0.2747
3781.00,0.2745
3780.00,0.2743
3779.00,0.2740
3778.00,0.2738
3777.00,0.2736
3776.00,0.2734
3775.00,0.2732
3774.00,0.2731
3773.00,0.2730
3772.00,0.2729
3771.00,0.2728
3770.00,0.2728
3769.00,0.2728
3768.00,0.2729
3767.00,0.2728
3766.00,0.2726
3765.00,0.2725
3764.00,0.2723
3763.00,0.2722
3762.00,0.2721
3761.00,0.2720
3760.00,0.2718
3759.00,0.2716
3758.00,0.2714
3757.00,0.2713
3756.00,0.2712
3755.00,0.2712
3754.00,0.2711
3753.00,0.2711
3752.00,0.2710
3751.00,0.2710
3750.00,0.2711
3749.00,0.2712
3748.00,0.2713
3747.00,0.2712
3746.00,0.2709
3745.00,0.2704
3744.00,0.2701
3743.00,0.2699
3742.00,0.2697
3741.00,0.2694
3740.00,0.2692
3739.00,0.2690
3738.00,0.2689
3737.00,0.2688
3736.00,0.2688
3735.00,0.2687
3734.00,0.2686
3733.00,0.2685
3732.00,0.2683
3731.00,0.2682
3730.00,0.2680
3729.00,0.2677
3728.00,0.2675
3727.00,0.2672
3726.00,0.2671
3725.00,0.2670
3724.00,0.2668
3723.00,0.2667
3722.00,0.2665
3721.00,0.2662
3720.00,0.2659
3719.00,0.2656
3718.00,0.2653
3717.00,0.2651
3716.00,0.2650
3715.00,0.2650
3714.00,0.2651
3713.00,0.2651
3712.00,0.2653
3711.00,0.2653
3710.00,0.2653
3709.00,0.2652
3708.00,0.2650
3707.00,0.2648
3706.00,0.2646
3705.00,0.2644
3704.00,0.2643
3703.00,0.2643
3702.00,0.2643
3701.00,0.2643
3700.00,0.2644
3699.00,0.2643
3698.00,0.2643
3697.00,0.2643
3696.00,0.2643
3695.00,0.2644
3694.00,0.2646
3693.00,0.2649
3692.00,0.2652
3691.00,0.2655
3690.00,0.2656
3689.00,0.2657
3688.00,0.2657
3687.00,0.2657
3686.00,0.2656
3685.00,0.2654
3684.00,0.2652
3683.00,0.2650
3682.00,0.2648
3681.00,0.2648
3680.00,0.2648
3679.00,0.2650
3678.00,0.2652
3677.00,0.2653
3676.00,0.2653
3675.00,0.2654
3674.00,0.2655
3673.00,0.2655
3672.00,0.2654
3671.00,0.2652
3670.00,0.2651
3669.00,0.2650
3668.00,0.2649
3667.00,0.2648
3666.00,0.2647
3665.00,0.2646
3664.00,0.2645
3663.00,0.2646
3662.00,0.2647
3661.00,0.2650
3660.00,0.2653
3659.00,0.2656
3658.00,0.2659
3657.00,0.2662
3656.00,0.2666
3655.00,0.2670
3654.00,0.2674
3653.00,0.2679
3652.00,0.2684
3651.00,0.2688
3650.00,0.2693
3649.00,0.2697
3648.00,0.2700
3647.00,0.2701
3646.00,0.2701
3645.00,0.2701
3644.00,0.2701
3643.00,0.2701
3642.00,0.2703
3641.00,0.2706
3640.00,0.2709
3639.00,0.2714
3638.00,0.2719
3637.00,0.2724
3636.00,0.2730
3635.00,0.2736
3634.00,0.2742
3633.00,0.2749
3632.00,0.2757
3631.00,0.2768
3630.00,0.2782
3629.00,0.2798
3628.00,0.2816
3627.00,0.2830
3626.00,0.2840
3625.00,0.2847
3624.00,0.2849
3623.00,0.2848
3622.00,0.2844
3621.00,0.2838
3620.00,0.2830
3619.00,0.2821
3618.00,0.2812
3617.00,0.2806
3616.00,0.2801
3615.00,0.2797
3614.00,0.2796
3613.00,0.2795
3612.00,0.2796
3611.00,0.2797
3610.00,0.2798
3609.00,0.2800
3608.00,0.2800
3607.00,0.2801
3606.00,0.2801
3605.00,0.2800
3604.00,0.2799
3603.00,0.2798
3602.00,0.2797
3601.00,0.2795
3600.00,0.2793
3599.00,0.2790
3598.00,0.2787
3597.00,0.2784
3596.00,0.2780
3595.00,0.2777
3594.00,0.2774
3593.00,0.2772
3592.00,0.2772
3591.00,0.2772
3590.00,0.2773
3589.00,0.2774
3588.00,0.2775
3587.00,0.2775
3586.00,0.2775
3585.00,0.2776
3584.00,0.2776
3583.00,0.2776
3582.00,0.2776
3581.00,0.2776
3580.00,0.2776
3579.00,0.2777
3578.00,0.2779
3577.00,0.2781
3576.00,0.2783
3575.00,0.2785
3574.00,0.2787
3573.00,0.2790
3572.00,0.2793
3571.00,0.2796
3570.00,0.2800
3569.00,0.2804
3568.00,0.2808
3567.00,0.2813
3566.00,0.2818
3565.00,0.2822
3564.00,0.2826
3563.00,0.2829
3562.00,0.2831
3561.00,0.2833
3560.00,0.2836
3559.00,0.2840
3558.00,0.2845
3557.00,0.2851
3556.00,0.2857
3555.00,0.2863
3554.00,0.2869
3553.00,0.2875
3552.00,0.2881
3551.00,0.2887
3550.00,0.2893
3549.00,0.2900
3548.00,0.2906
3547.00,0.2912
3546.00,0.2918
3545.00,0.2924
3544.00,0.2929
3543.00,0.2935
3542.00,0.2941
3541.00,0.2946
3540.00,0.2952
3539.00,0.2958
3538.00,0.2964
3537.00,0.2971
3536.00,0.2976
3535.00,0.2982
3534.00,0.2987
3533.00,0.2993
3532.00,0.2999
3531.00,0.3005
3530.00,0.3012
3529.00,0.3019
3528.00,0.3026
3527.00,0.3033
3526.00,0.3040
3525.00,0.3046
3524.00,0.3053
3523.00,0.3060
3522.00,0.3067
3521.00,0.3075
3520.00,0.3082
3519.00,0.3090
3518.00,0.3097
3517.00,0.3105
3516.00,0.3112
3515.00,0.3119
3514.00,0.3126
3513.00,0.3134
3512.00,0.3142
3511.00,0.3150
3510.00,0.3158
3509.00,0.3166
3508.00,0.3174
3507.00,0.3182
3506.00,0.3190
3505.00,0.3199
3504.00,0.3208
3503.00,0.3216
3502.00,0.3225
3501.00,0.3234
3500.00,0.3242
3499.00,0.3249
3498.00,0.3258
3497.00,0.3266
3496.00,0.3276
3495.00,0.3286
3494.00,0.3295
3493.00,0.3305
3492.00,0.3315
3491.00,0.3325
3490.00,0.3335
3489.00,0.3346
3488.00,0.3357
3487.00,0.3367
3486.00,0.3378
3485.00,0.3387
3484.00,0.3397
3483.00,0.3406
3482.00,0.3415
3481.00,0.3424
3480.00,0.3432
3479.00,0.3441
3478.00,0.3449
3477.00,0.3457
3476.00,0.3466
3475.00,0.3475
3474.00,0.3484
3473.00,0.3493
3472.00,0.3502
3471.00,0.3511
3470.00,0.3521
3469.00,0.3531
3468.00,0.3540
3467.00,0.3550
3466.00,0.3559
3465.00,0.3569
3464.00,0.3579
3463.00,0.3590
3462.00,0.3601
3461.00,0.3612
3460.00,0.3622
3459.00,0.3633
3458.00,0.3643
3457.00,0.3654
3456.00,0.3665
3455.00,0.3676
3454.00,0.3687
3453.00,0.3699
3452.00,0.3712
3451.00,0.3725
3450.00,0.3738
3449.00,0.3751
3448.00,0.3764
3447.00,0.3778
3446.00,0.3790
3445.00,0.3803
3444.00,0.3815
3443.00,0.3827
3442.00,0.3839
3441.00,0.3852
3440.00,0.3865
3439.00,0.3879
3438.00,0.3892
3437.00,0.3905
3436.00,0.3918
3435.00,0.3931
3434.00,0.3944
3433.00,0.3958
3432.00,0.3971
3431.00,0.3983
3430.00,0.3996
3429.00,0.4010
3428.00,0.4025
3427.00,0.4041
3426.00,0.4056
3425.00,0.4071
3424.00,0.4085
3423.00,0.4099
3422.00,0.4114
3421.00,0.4129
3420.00,0.4145
3419.00,0.4160
3418.00,0.4175
3417.00,0.4191
3416.00,0.4207
3415.00,0.4223
3414.00,0.4239
3413.00,0.4256
3412.00,0.4272
3411.00,0.4289
3410.00,0.4305
3409.00,0.4322
3408.00,0.4338
3407.00,0.4354
3406.00,0.4370
3405.00,0.4387
3404.00,0.4404
3403.00,0.4422
3402.00,0.4439
3401.00,0.4456
3400.00,0.4475
3399.00,0.4493
3398.00,0.4510
3397.00,0.4528
3396.00,0.4546
3395.00,0.4564
3394.00,0.4582
3393.00,0.4600
3392.00,0.4617
3391.00,0.4635
3390.00,0.4653
3389.00,0.4672
3388.00,0.4692
3387.00,0.4711
3386.00,0.4730
3385.00,0.4749
3384.00,0.4768
3383.00,0.4786
3382.00,0.4806
3381.00,0.4825
3380.00,0.4845
3379.00,0.4866
3378.00,0.4886
3377.00,0.4907
3376.00,0.4927
3375.00,0.4948
3374.00,0.4969
3373.00,0.4991
3372.00,0.5013
3371.00,0.5035
3370.00,0.5057
3369.00,0.5080
3368.00,0.5103
3367.00,0.5126
3366.00,0.5149
3365.00,0.5172
3364.00,0.5196
3363.00,0.5220
3362.00,0.5244
3361.00,0.5269
3360.00,0.5294
3359.00,0.5319
3358.00,0.5344
3357.00,0.5369
3356.00,0.5394
3355.00,0.5419
3354.00,0.5443
3353.00,0.5469
3352.00,0.5494
3351.00,0.5520
3350.00,0.5545
3349.00,0.5570
3348.00,0.5595
3347.00,0.5619
3346.00,0.5643
3345.00,0.5666
3344.00,0.5689
3343.00,0.5712
3342.00,0.5734
3341.00,0.5756
3340.00,0.5777
3339.00,0.5796
3338.00,0.5813
3337.00,0.5830
3336.00,0.5846
3335.00,0.5863
3334.00,0.5879
3333.00,0.5894
3332.00,0.5908
3331.00,0.5921
3330.00,0.5933
3329.00,0.5944
3328.00,0.5955
3327.00,0.5964
3326.00,0.5972
3325.00,0.5979
3324.00,0.5986
3323.00,0.5992
3322.00,0.5997
3321.00,0.6000
3320.00,0.6003
3319.00,0.6005
3318.00,0.6006
3317.00,0.6008
3316.00,0.6009
3315.00,0.6010
3314.00,0.6009
3313.00,0.6009
3312.00,0.6008
3311.00,0.6007
3310.00,0.6006
3309.00,0.6004
3308.00,0.6003
3307.00,0.6000
3306.00,0.5998
3305.00,0.5995
3304.00,0.5992
3303.00,0.5987
3302.00,0.5983
3301.00,0.5979
3300.00,0.5975
3299.00,0.5972
3298.00,0.5969
3297.00,0.5965
3296.00,0.5961
3295.00,0.5958
3294.00,0.5955
3293.00,0.5952
3292.00,0.5950
3291.00,0.5947
3290.00,0.5943
3289.00,0.5940
3288.00,0.5937
3287.00,0.5936
3286.00,0.5935
3285.00,0.5935
3284.00,0.5935
3283.00,0.5935
3282.00,0.5936
3281.00,0.5937
3280.00,0.5937
3279.00,0.5938
3278.00,0.5939
3277.00,0.5941
3276.00,0.5944
3275.00,0.5948
3274.00,0.5950
3273.00,0.5953
3272.00,0.5956
3271.00,0.5959
3270.00,0.5962
3269.00,0.5965
3268.00,0.5968
3267.00,0.5971
3266.00,0.5974
3265.00,0.5977
3264.00,0.5981
3263.00,0.5985
3262.00,0.5988
3261.00,0.5992
3260.00,0.5996
3259.00,0.6000
3258.00,0.6005
3257.00,0.6010
3256.00,0.6014
3255.00,0.6017
3254.00,0.6021
3253.00,0.6024
3252.00,0.6026
3251.00,0.6027
3250.00,0.6029
3249.00,0.6030
3248.00,0.6032
3247.00,0.6034
3246.00,0.6034
3245.00,0.6035
3244.00,0.6035
3243.00,0.6035
3242.00,0.6034
3241.00,0.6033
3240.00,0.6031
3239.00,0.6030
3238.00,0.6028
3237.00,0.6025
3236.00,0.6023
3235.00,0.6020
3234.00,0.6016
3233.00,0.6012
3232.00,0.6007
3231.00,0.6001
3230.00,0.5994
3229.00,0.5987
3228.00,0.5981
3227.00,0.5974
3226.00,0.5967
3225.00,0.5960
3224.00,0.5952
3223.00,0.5945
3222.00,0.5937
3221.00,0.5930
3220.00,0.5922
3219.00,0.5914
3218.00,0.5905
3217.00,0.5897
3216.00,0.5887
3215.00,0.5878
3214.00,0.5868
3213.00,0.5858
3212.00,0.5848
3211.00,0.5838
3210.00,0.5828
3209.00,0.5817
3208.00,0.5805
3207.00,0.5794
3206.00,0.5783
3205.00,0.5772
3204.00,0.5761
3203.00,0.5749
3202.00,0.5737
3201.00,0.5725
3200.00,0.5712
3199.00,0.5699
3198.00,0.5685
3197.00,0.5671
3196.00,0.5657
3195.00,0.5642
3194.00,0.5628
3193.00,0.5614
3192.00,0.5599
3191.00,0.5584
3190.00,0.5569
3189.00,0.5554
3188.00,0.5537
3187.00,0.5520
3186.00,0.5502
3185.00,0.5485
3184.00,0.5468
3183.00,0.5451
3182.00,0.5433
3181.00,0.5415
3180.00,0.5397
3179.00,0.5378
3178.00,0.5359
3177.00,0.5340
3176.00,0.5321
3175.00,0.5303
3174.00,0.5284
3173.00,0.5266
3172.00,0.5246
3171.00,0.5227
3170.00,0.5207
3169.00,0.5188
3168.00,0.5168
3167.00,0.5147
3166.00,0.5127
3165.00,0.5107
3164.00,0.5087
3163.00,0.5068
3162.00,0.5049
3161.00,0.5030
3160.00,0.5011
3159.00,0.4991
3158.00,0.4972
3157.00,0.4953
3156.00,0.4935
3155.00,0.4917
3154.00,0.4898
3153.00,0.4878
3152.00,0.4860
3151.00,0.4842
3150.00,0.4824
3149.00,0.4807
3148.00,0.4791
3147.00,0.4775
3146.00,0.4758
3145.00,0.4743
3144.00,0.4727
3143.00,0.4711
3142.00,0.4696
3141.00,0.4681
3140.00,0.4666
3139.00,0.4652
3138.00,0.4639
3137.00,0.4626
3136.00,0.4613
3135.00,0.4601
3134.00,0.4588
3133.00,0.4576
3132.00,0.4564
3131.00,0.4553
3130.00,0.4543
3129.00,0.4533
3128.00,0.4523
3127.00,0.4514
3126.00,0.4505
3125.00,0.4496
3124.00,0.4489
3123.00,0.4482
3122.00,0.4475
3121.00,0.4469
3120.00,0.4462
3119.00,0.4457
3118.00,0.4451
3117.00,0.4447
3116.00,0.4442
3115.00,0.4439
3114.00,0.4435
3113.00,0.4433
3112.00,0.4431
3111.00,0.4429
3110.00,0.4428
3109.00,0.4428
3108.00,0.4428
3107.00,0.4428
3106.00,0.4429
3105.00,0.4431
3104.00,0.4433
3103.00,0.4435
3102.00,0.4438
3101.00,0.4442
3100.00,0.4445
3099.00,0.4449
3098.00,0.4453
3097.00,0.4459
3096.00,0.4467
3095.00,0.4476
3094.00,0.4486
3093.00,0.4498
3092.00,0.4510
3091.00,0.4523
3090.00,0.4538
3089.00,0.4553
3088.00,0.4571
3087.00,0.4590
3086.00,0.4609
3085.00,0.4630
3084.00,0.4652
3083.00,0.4675
3082.00,0.4699
3081.00,0.4725
3080.00,0.4754
3079.00,0.4784
3078.00,0.4816
3077.00,0.4849
3076.00,0.4884
3075.00,0.4920
3074.00,0.4956
3073.00,0.4992
3072.00,0.5028
3071.00,0.5064
3070.00,0.5100
3069.00,0.5135
3068.00,0.5169
3067.00,0.5202
3066.00,0.5234
3065.00,0.5264
3064.00,0.5292
3063.00,0.5317
3062.00,0.5340
3061.00,0.5363
3060.00,0.5384
3059.00,0.5406
3058.00,0.5428
3057.00,0.5450
3056.00,0.5475
3055.00,0.5502
3054.00,0.5531
3053.00,0.5562
3052.00,0.5596
3051.00,0.5632
3050.00,0.5669
3049.00,0.5709
3048.00,0.5751
3047.00,0.5796
3046.00,0.5841
3045.00,0.5887
3044.00,0.5933
3043.00,0.5978
3042.00,0.6022
3041.00,0.6066
3040.00,0.6111
3039.00,0.6157
3038.00,0.6203
3037.00,0.6252
3036.00,0.6303
3035.00,0.6357
3034.00,0.6414
3033.00,0.6475
3032.00,0.6539
3031.00,0.6608
3030.00,0.6682
3029.00,0.6760
3028.00,0.6844
3027.00,0.6931
3026.00,0.7023
3025.00,0.7119
3024.00,0.7219
3023.00,0.7323
3022.00,0.7433
3021.00,0.7547
3020.00,0.7665
3019.00,0.7787
3018.00,0.7911
3017.00,0.8037
3016.00,0.8164
3015.00,0.8294
3014.00,0.8426
3013.00,0.8564
3012.00,0.8707
3011.00,0.8859
3010.00,0.9019
3009.00,0.9189
3008.00,0.9368
3007.00,0.9556
3006.00,0.9754
3005.00,0.9961
3004.00,1.0175
3003.00,1.0395
3002.00,1.0624
3001.00,1.0862
3000.00,1.1112
2999.00,1.1377
2998.00,1.1660
2997.00,1.1965
2996.00,1.2295
2995.00,1.2652
2994.00,1.3043
2993.00,1.3474
2992.00,1.3950
2991.00,1.4476
2990.00,1.5054
2989.00,1.5692
2988.00,1.6399
2987.00,1.7182
2986.00,1.8049
2985.00,1.9004
2984.00,2.0057
2983.00,2.1218
2982.00,2.2487
2981.00,2.3850
2980.00,2.5296
2979.00,2.6842
2978.00,2.8516
2977.00,3.0324
2976.00,3.2268
2975.00,3.4317
2974.00,3.6049
2973.00,3.6804
2972.00,3.7077
2971.00,3.7879
2970.00,3.9326
2969.00,4.0143
2968.00,3.9637
2967.00,3.9172
2966.00,3.9490
2965.00,4.0457
2964.00,4.0958
2963.00,4.0437
2962.00,3.9933
2961.00,4.0250
2960.00,4.1506
2959.00,4.1431
2958.00,3.9484
2957.00,3.7957
2956.00,3.7587
2955.00,3.8253
2954.00,3.9134
2953.00,3.9495
2952.00,3.8721
2951.00,3.7515
2950.00,3.6937
2949.00,3.7289
2948.00,3.8340
2947.00,3.9694
2946.00,4.1300
2945.00,4.1800
2944.00,4.1227
2943.00,4.0910
2942.00,4.1230
2941.00,4.1613
2940.00,4.1643
2939.00,4.3133
2938.00,4.6497
2937.00,4.9474
2936.00,5.0756
2935.00,4.7101
2934.00,4.2906
2933.00,4.0032
2932.00,3.8715
2931.00,3.8673
2930.00,4.0462
2929.00,4.3485
2928.00,4.2634
2927.00,4.0735
2926.00,3.9909
2925.00,4.0340
2924.00,4.0663
2923.00,4.0826
2922.00,4.2814
2921.00,4.5145
2920.00,4.2551
2919.00,4.0547
2918.00,4.0837
2917.00,4.2675
2916.00,4.0843
2915.00,3.8697
2914.00,3.8448
2913.00,3.9567
2912.00,4.1388
2911.00,4.3399
2910.00,4.3306
2909.00,4.3117
2908.00,4.3844
2907.00,4.2834
2906.00,4.1302
2905.00,4.0233
2904.00,4.0424
2903.00,4.0542
2902.00,3.9633
2901.00,3.8286
2900.00,3.7548
2899.00,3.8397
2898.00,4.0770
2897.00,4.2683
2896.00,4.2313
2895.00,4.1315
2894.00,4.0315
2893.00,3.9888
2892.00,3.9586
2891.00,4.0477
2890.00,4.2316
2889.00,4.1161
2888.00,3.9682
2887.00,3.9820
2886.00,4.2407
2885.00,4.2121
2884.00,3.9450
2883.00,3.8349
2882.00,3.8721
2881.00,3.9309
2880.00,3.8961
2879.00,3.8888
2878.00,4.0052
2877.00,4.2795
2876.00,4.6082
2875.00,4.7702
2874.00,4.5219
2873.00,4.3532
2872.00,4.2609
2871.00,4.1750
2870.00,3.9975
2869.00,3.8815
2868.00,3.8884
2867.00,3.9353
2866.00,3.9548
2865.00,3.9273
2864.00,3.9421
2863.00,4.0656
2862.00,4.2796
2861.00,4.3163
2860.00,4.0785
2859.00,3.9098
2858.00,3.8634
2857.00,3.9111
2856.00,4.0308
2855.00,4.2471
2854.00,4.5012
2853.00,4.4494
2852.00,4.2145
2851.00,4.1010
2850.00,4.0661
2849.00,4.0614
2848.00,4.0775
2847.00,4.1385
2846.00,4.2855
2845.00,4.2990
2844.00,4.1210
2843.00,3.9956
2842.00,3.9893
2841.00,4.0311
2840.00,3.9978
2839.00,3.8330
2838.00,3.5675
2837.00,3.2967
2836.00,3.0640
2835.00,2.8633
2834.00,2.6787
2833.00,2.5042
2832.00,2.3410
2831.00,2.1921
2830.00,2.0589
2829.00,1.9410
2828.00,1.8371
2827.00,1.7450
2826.00,1.6620
2825.00,1.5865
2824.00,1.5177
2823.00,1.4552
2822.00,1.3984
2821.00,1.3463
2820.00,1.2984
2819.00,1.2544
2818.00,1.2138
2817.00,1.1760
2816.00,1.1407
2815.00,1.1079
2814.00,1.0773
2813.00,1.0486
2812.00,1.0214
2811.00,0.9956
2810.00,0.9709
2809.00,0.9475
2808.00,0.9254
2807.00,0.9046
2806.00,0.8850
2805.00,0.8665
2804.00,0.8489
2803.00,0.8321
2802.00,0.8160
2801.00,0.8007
2800.00,0.7861
2799.00,0.7722
2798.00,0.7590
2797.00,0.7464
2796.00,0.7342
2795.00,0.7224
2794.00,0.7109
2793.00,0.6997
2792.00,0.6889
2791.00,0.6782
2790.00,0.6678
2789.00,0.6577
2788.00,0.6479
2787.00,0.6383
2786.00,0.6290
2785.00,0.6199
2784.00,0.6111
2783.00,0.6026
2782.00,0.5943
2781.00,0.5863
2780.00,0.5786
2779.00,0.5713
2778.00,0.5644
2777.00,0.5579
2776.00,0.5516
2775.00,0.5457
2774.00,0.5402
2773.00,0.5350
2772.00,0.5301
2771.00,0.5255
2770.00,0.5213
2769.00,0.5174
2768.00,0.5138
2767.00,0.5106
2766.00,0.5077
2765.00,0.5052
2764.00,0.5030
2763.00,0.5012
2762.00,0.4995
2761.00,0.4980
2760.00,0.4967
2759.00,0.4954
2758.00,0.4942
2757.00,0.4930
2756.00,0.4919
2755.00,0.4908
2754.00,0.4899
2753.00,0.4891
2752.00,0.4885
2751.00,0.4881
2750.00,0.4879
2749.00,0.4878
2748.00,0.4879
2747.00,0.4883
2746.00,0.4888
2745.00,0.4897
2744.00,0.4909
2743.00,0.4924
2742.00,0.4943
2741.00,0.4965
2740.00,0.4992
2739.00,0.5023
2738.00,0.5059
2737.00,0.5101
2736.00,0.5148
2735.00,0.5200
2734.00,0.5254
2733.00,0.5308
2732.00,0.5357
2731.00,0.5399
2730.00,0.5431
2729.00,0.5453
2728.00,0.5464
2727.00,0.5466
2726.00,0.5461
2725.00,0.5450
2724.00,0.5434
2723.00,0.5414
2722.00,0.5390
2721.00,0.5361
2720.00,0.5326
2719.00,0.5287
2718.00,0.5244
2717.00,0.5198
2716.00,0.5150
2715.00,0.5100
2714.00,0.5050
2713.00,0.5002
2712.00,0.4956
2711.00,0.4915
2710.00,0.4877
2709.00,0.4845
2708.00,0.4817
2707.00,0.4792
2706.00,0.4772
2705.00,0.4755
2704.00,0.4741
2703.00,0.4729
2702.00,0.4721
2701.00,0.4714
2700.00,0.4710
2699.00,0.4708
2698.00,0.4708
2697.00,0.4709
2696.00,0.4712
2695.00,0.4715
2694.00,0.4720
2693.00,0.4726
2692.00,0.4732
2691.00,0.4738
2690.00,0.4745
2689.00,0.4751
2688.00,0.4757
2687.00,0.4763
2686.00,0.4767
2685.00,0.4771
2684.00,0.4774
2683.00,0.4777
2682.00,0.4780
2681.00,0.4783
2680.00,0.4787
2679.00,0.4792
2678.00,0.4798
2677.00,0.4804
2676.00,0.4811
2675.00,0.4818
2674.00,0.4824
2673.00,0.4830
2672.00,0.4835
2671.00,0.4839
2670.00,0.4839
