Created as New Dataset,
cm-1,A
4000.00,0.4930
3999.00,0.4928
3998.00,0.4926
3997.00,0.4925
3996.00,0.4924
3995.00,0.4924
3994.00,0.4923
3993.00,0.4922
3992.00,0.4919
3991.00,0.4916
3990.00,0.4913
3989.00,0.4910
3988.00,0.4907
3987.00,0.4903
3986.00,0.4900
3985.00,0.4896
3984.00,0.4892
3983.00,0.4887
3982.00,0.4883
3981.00,0.4880
3980.00,0.4877
3979.00,0.4874
3978.00,0.4870
3977.00,0.4865
3976.00,0.4860
3975.00,0.4855
3974.00,0.4852
3973.00,0.4849
3972.00,0.4846
3971.00,0.4843
3970.00,0.4840
3969.00,0.4838
3968.00,0.4836
3967.00,0.4834
3966.00,0.4832
3965.00,0.4829
3964.00,0.4826
3963.00,0.4824
3962.00,0.4823
3961.00,0.4822
3960.00,0.4821
3959.00,0.4821
3958.00,0.4820
3957.00,0.4821
3956.00,0.4822
3955.00,0.4823
3954.00,0.4824
3953.00,0.4824
3952.00,0.4824
3951.00,0.4822
3950.00,0.4820
3949.00,0.4818
3948.00,0.4817
3947.00,0.4816
3946.00,0.4815
3945.00,0.4813
3944.00,0.4812
3943.00,0.4813
3942.00,0.4814
3941.00,0.4814
3940.00,0.4813
3939.00,0.4811
3938.00,0.4811
3937.00,0.4812
3936.00,0.4811
3935.00,0.4808
3934.00,0.4805
3933.00,0.4802
3932.00,0.4799
3931.00,0.4796
3930.00,0.4792
3929.00,0.4787
3928.00,0.4781
3927.00,0.4774
3926.00,0.4768
3925.00,0.4762
3924.00,0.4757
3923.00,0.4750
3922.00,0.4744
3921.00,0.4738
3920.00,0.4733
3919.00,0.4728
3918.00,0.4724
3917.00,0.4721
3916.00,0.4720
3915.00,0.4719
3914.00,0.4718
3913.00,0.4717
3912.00,0.4716
3911.00,0.4716
3910.00,0.4715
3909.00,0.4715
3908.00,0.4713
3907.00,0.4709
3906.00,0.4705
3905.00,0.4703
3904.00,0.4703
3903.00,0.4702
3902.00,0.4699
3901.00,0.4696
3900.00,0.4694
3899.00,0.4694
3898.00,0.4695
3897.00,0.4695
3896.00,0.4696
3895.00,0.4696
3894.00,0.4693
3893.00,0.4690
3892.00,0.4689
3891.00,0.4691
3890.00,0.4693
3889.00,0.4691
3888.00,0.4685
3887.00,0.4682
3886.00,0.4685
3885.00,0.4691
3884.00,0.4693
3883.00,0.4688
3882.00,0.4682
3881.00,0.4681
3880.00,0.4684
3879.00,0.4687
3878.00,0.4685
3877.00,0.4678
3876.00,0.4673
3875.00,0.4673
3874.00,0.4676
3873.00,0.4674
3872.00,0.4665
3871.00,0.4657
3870.00,0.4657
3869.00,0.4658
3868.00,0.4655
3867.00,0.4647
3866.00,0.4641
3865.00,0.4638
3864.00,0.4635
3863.00,0.4628
3862.00,0.4619
3861.00,0.4608
3860.00,0.4599
3859.00,0.4593
3858.00,0.4590
3857.00,0.4584
3856.00,0.4573
3855.00,0.4564
3854.00,0.4559
3853.00,0.4556
3852.00,0.4549
3851.00,0.4542
3850.00,0.4538
3849.00,0.4537
3848.00,0.4538
3847.00,0.4537
3846.00,0.4534
3845.00,0.4528
3844.00,0.4523
3843.00,0.4519
3842.00,0.4514
3841.00,0.4507
3840.00,0.4500
3839.00,0.4494
3838.00,0.4491
3837.00,0.4489
3836.00,0.4487
3835.00,0.4484
3834.00,0.4481
3833.00,0.4479
3832.00,0.4479
3831.00,0.4480
3830.00,0.4478
3829.00,0.4471
3828.00,0.4464
3827.00,0.4460
3826.00,0.4460
3825.00,0.4458
3824.00,0.4450
3823.00,0.4439
3822.00,0.4436
3821.00,0.4439
3820.00,0.4443
3819.00,0.4438
3818.00,0.4429
3817.00,0.4424
3816.00,0.4426
3815.00,0.4427
3814.00,0.4422
3813.00,0.4415
3812.00,0.4410
3811.00,0.4409
3810.00,0.4405
3809.00,0.4397
3808.00,0.4390
3807.00,0.4389
3806.00,0.4389
3805.00,0.4386
3804.00,0.4375
3803.00,0.4365
3802.00,0.4364
3801.00,0.4367
3800.00,0.4365
3799.00,0.4359
3798.00,0.4352
3797.00,0.4351
3796.00,0.4353
3795.00,0.4354
3794.00,0.4352
3793.00,0.4348
3792.00,0.4345
3791.00,0.4343
3790.00,0.4341
3789.00,0.4338
3788.00,0.4335
3787.00,0.4330
3786.00,0.4326
3785.00,0.4323
3784.00,0.4320
3783.00,0.4318
3782.00,0.4313
3781.00,0.4309
3780.00,0.4307
3779.00,0.4306
3778.00,0.4303
3777.00,0.4298
3776.00,0.4292
3775.00,0.4289
3774.00,0.4287
3773.00,0.4284
3772.00,0.4278
3771.00,0.4274
3770.00,0.4273
3769.00,0.4270
3768.00,0.4265
3767.00,0.4258
3766.00,0.4254
3765.00,0.4253
3764.00,0.4252
3763.00,0.4249
3762.00,0.4244
3761.00,0.4240
3760.00,0.4237
3759.00,0.4232
3758.00,0.4226
3757.00,0.4221
3756.00,0.4216
3755.00,0.4211
3754.00,0.4207
3753.00,0.4203
3752.00,0.4198
3751.00,0.4193
3750.00,0.4190
3749.00,0.4193
3748.00,0.4196
3747.00,0.4192
3746.00,0.4190
3745.00,0.4198
3744.00,0.4209
3743.00,0.4215
3742.00,0.4216
3741.00,0.4218
3740.00,0.4224
3739.00,0.4229
3738.00,0.4233
3737.00,0.4237
3736.00,0.4243
3735.00,0.4247
3734.00,0.4248
3733.00,0.4249
3732.00,0.4255
3731.00,0.4262
3730.00,0.4268
3729.00,0.4270
3728.00,0.4272
3727.00,0.4276
3726.00,0.4278
3725.00,0.4278
3724.00,0.4276
3723.00,0.4275
3722.00,0.4276
3721.00,0.4276
3720.00,0.4274
3719.00,0.4271
3718.00,0.4269
3717.00,0.4268
3716.00,0.4267
3715.00,0.4264
3714.00,0.4261
3713.00,0.4260
3712.00,0.4260
3711.00,0.4260
3710.00,0.4258
3709.00,0.4256
3708.00,0.4255
3707.00,0.4257
3706.00,0.4261
3705.00,0.4264
3704.00,0.4268
3703.00,0.4272
3702.00,0.4278
3701.00,0.4284
3700.00,0.4289
3699.00,0.4292
3698.00,0.4296
3697.00,0.4301
3696.00,0.4309
3695.00,0.4316
3694.00,0.4324
3693.00,0.4333
3692.00,0.4344
3691.00,0.4355
3690.00,0.4369
3689.00,0.4387
3688.00,0.4406
3687.00,0.4424
3686.00,0.4440
3685.00,0.4456
3684.00,0.4474
3683.00,0.4493
3682.00,0.4511
3681.00,0.4531
3680.00,0.4554
3679.00,0.4576
3678.00,0.4593
3677.00,0.4616
3676.00,0.4652
3675.00,0.4697
3674.00,0.4736
3673.00,0.4768
3672.00,0.4805
3671.00,0.4860
3670.00,0.4932
3669.00,0.5011
3668.00,0.5088
3667.00,0.5167
3666.00,0.5253
3665.00,0.5345
3664.00,0.5443
3663.00,0.5547
3662.00,0.5660
3661.00,0.5785
3660.00,0.5926
3659.00,0.6092
3658.00,0.6306
3657.00,0.6593
3656.00,0.6951
3655.00,0.7355
3654.00,0.7793
3653.00,0.8299
3652.00,0.8951
3651.00,0.9850
3650.00,1.1082
3649.00,1.2694
3648.00,1.4671
3647.00,1.6907
3646.00,1.9206
3645.00,2.1364
3644.00,2.3162
3643.00,2.4187
3642.00,2.4019
3641.00,2.2802
3640.00,2.1003
3639.00,1.9029
3638.00,1.7157
3637.00,1.5500
3636.00,1.4056
3635.00,1.2818
3634.00,1.1803
3633.00,1.1003
3632.00,1.0357
3631.00,0.9787
3630.00,0.9250
3629.00,0.8775
3628.00,0.8399
3627.00,0.8121
3626.00,0.7909
3625.00,0.7741
3624.00,0.7603
3623.00,0.7487
3622.00,0.7382
3621.00,0.7287
3620.00,0.7201
3619.00,0.7125
3618.00,0.7056
3617.00,0.6990
3616.00,0.6924
3615.00,0.6855
3614.00,0.6786
3613.00,0.6722
3612.00,0.6663
3611.00,0.6607
3610.00,0.6554
3609.00,0.6508
3608.00,0.6469
3607.00,0.6437
3606.00,0.6409
3605.00,0.6384
3604.00,0.6362
3603.00,0.6341
3602.00,0.6319
3601.00,0.6299
3600.00,0.6280
3599.00,0.6262
3598.00,0.6244
3597.00,0.6228
3596.00,0.6214
3595.00,0.6202
3594.00,0.6190
3593.00,0.6180
3592.00,0.6172
3591.00,0.6164
3590.00,0.6156
3589.00,0.6152
3588.00,0.6154
3587.00,0.6158
3586.00,0.6164
3585.00,0.6169
3584.00,0.6176
3583.00,0.6184
3582.00,0.6194
3581.00,0.6205
3580.00,0.6216
3579.00,0.6227
3578.00,0.6238
3577.00,0.6250
3576.00,0.6263
3575.00,0.6276
3574.00,0.6289
3573.00,0.6303
3572.00,0.6317
3571.00,0.6330
3570.00,0.6341
3569.00,0.6352
3568.00,0.6365
3567.00,0.6379
3566.00,0.6391
3565.00,0.6401
3564.00,0.6410
3563.00,0.6418
3562.00,0.6425
3561.00,0.6431
3560.00,0.6437
3559.00,0.6440
3558.00,0.6441
3557.00,0.6440
3556.00,0.6439
3555.00,0.6437
3554.00,0.6434
3553.00,0.6430
3552.00,0.6426
3551.00,0.6420
3550.00,0.6412
3549.00,0.6404
3548.00,0.6395
3547.00,0.6388
3546.00,0.6380
3545.00,0.6371
3544.00,0.6363
3543.00,0.6354
3542.00,0.6346
3541.00,0.6340
3540.00,0.6335
3539.00,0.6329
3538.00,0.6323
3537.00,0.6318
3536.00,0.6313
3535.00,0.6308
3534.00,0.6303
3533.00,0.6298
3532.00,0.6294
3531.00,0.6290
3530.00,0.6286
3529.00,0.6281
3528.00,0.6278
3527.00,0.6274
3526.00,0.6271
3525.00,0.6268
3524.00,0.6267
3523.00,0.6267
3522.00,0.6267
3521.00,0.6268
3520.00,0.6267
3519.00,0.6267
3518.00,0.6267
3517.00,0.6267
3516.00,0.6268
3515.00,0.6269
3514.00,0.6271
3513.00,0.6273
3512.00,0.6275
3511.00,0.6276
3510.00,0.6277
3509.00,0.6280
3508.00,0.6283
3507.00,0.6286
3506.00,0.6290
3505.00,0.6294
3504.00,0.6299
3503.00,0.6303
3502.00,0.6308
3501.00,0.6314
3500.00,0.6320
3499.00,0.6326
3498.00,0.6332
3497.00,0.6338
3496.00,0.6343
3495.00,0.6349
3494.00,0.6355
3493.00,0.6363
3492.00,0.6373
3491.00,0.6383
3490.00,0.6393
3489.00,0.6403
3488.00,0.6413
3487.00,0.6422
3486.00,0.6431
3485.00,0.6441
3484.00,0.6450
3483.00,0.6459
3482.00,0.6468
3481.00,0.6476
3480.00,0.6483
3479.00,0.6489
3478.00,0.6494
3477.00,0.6500
3476.00,0.6507
3475.00,0.6514
3474.00,0.6522
3473.00,0.6530
3472.00,0.6537
3471.00,0.6545
3470.00,0.6552
3469.00,0.6560
3468.00,0.6568
3467.00,0.6577
3466.00,0.6585
3465.00,0.6595
3464.00,0.6605
3463.00,0.6615
3462.00,0.6624
3461.00,0.6634
3460.00,0.6643
3459.00,0.6653
3458.00,0.6664
3457.00,0.6676
3456.00,0.6689
3455.00,0.6702
3454.00,0.6714
3453.00,0.6725
3452.00,0.6736
3451.00,0.6748
3450.00,0.6761
3449.00,0.6775
3448.00,0.6790
3447.00,0.6804
3446.00,0.6819
3445.00,0.6833
3444.00,0.6847
3443.00,0.6862
3442.00,0.6877
3441.00,0.6893
3440.00,0.6909
3439.00,0.6926
3438.00,0.6942
3437.00,0.6957
3436.00,0.6970
3435.00,0.6982
3434.00,0.6995
3433.00,0.7008
3432.00,0.7022
3431.00,0.7036
3430.00,0.7049
3429.00,0.7061
3428.00,0.7073
3427.00,0.7084
3426.00,0.7097
3425.00,0.7110
3424.00,0.7124
3423.00,0.7138
3422.00,0.7151
3421.00,0.7163
3420.00,0.7176
3419.00,0.7189
3418.00,0.7203
3417.00,0.7218
3416.00,0.7233
3415.00,0.7248
3414.00,0.7263
3413.00,0.7278
3412.00,0.7292
3411.00,0.7307
3410.00,0.7321
3409.00,0.7335
3408.00,0.7349
3407.00,0.7364
3406.00,0.7378
3405.00,0.7394
3404.00,0.7410
3403.00,0.7427
3402.00,0.7444
3401.00,0.7460
3400.00,0.7474
3399.00,0.7487
3398.00,0.7501
3397.00,0.7516
3396.00,0.7532
3395.00,0.7548
3394.00,0.7564
3393.00,0.7580
3392.00,0.7596
3391.00,0.7611
3390.00,0.7627
3389.00,0.7642
3388.00,0.7657
3387.00,0.7672
3386.00,0.7686
3385.00,0.7700
3384.00,0.7714
3383.00,0.7728
3382.00,0.7743
3381.00,0.7758
3380.00,0.7773
3379.00,0.7787
3378.00,0.7801
3377.00,0.7816
3376.00,0.7832
3375.00,0.7849
3374.00,0.7865
3373.00,0.7881
3372.00,0.7897
3371.00,0.7912
3370.00,0.7926
3369.00,0.7940
3368.00,0.7952
3367.00,0.7964
3366.00,0.7977
3365.00,0.7990
3364.00,0.8004
3363.00,0.8017
3362.00,0.8029
3361.00,0.8041
3360.00,0.8054
3359.00,0.8066
3358.00,0.8078
3357.00,0.8089
3356.00,0.8101
3355.00,0.8112
3354.00,0.8123
3353.00,0.8135
3352.00,0.8147
3351.00,0.8157
3350.00,0.8168
3349.00,0.8179
3348.00,0.8192
3347.00,0.8205
3346.00,0.8218
3345.00,0.8230
3344.00,0.8241
3343.00,0.8251
3342.00,0.8260
3341.00,0.8268
3340.00,0.8277
3339.00,0.8284
3338.00,0.8291
3337.00,0.8298
3336.00,0.8305
3335.00,0.8311
3334.00,0.8317
3333.00,0.8322
3332.00,0.8325
3331.00,0.8327
3330.00,0.8328
3329.00,0.8328
3328.00,0.8327
3327.00,0.8327
3326.00,0.8327
3325.00,0.8327
3324.00,0.8327
3323.00,0.8325
3322.00,0.8321
3321.00,0.8318
3320.00,0.8315
3319.00,0.8313
3318.00,0.8310
3317.00,0.8306
3316.00,0.8300
3315.00,0.8292
3314.00,0.8285
3313.00,0.8277
3312.00,0.8269
3311.00,0.8261
3310.00,0.8252
3309.00,0.8244
3308.00,0.8235
3307.00,0.8224
3306.00,0.8213
3305.00,0.8202
3304.00,0.8191
3303.00,0.8180
3302.00,0.8167
3301.00,0.8155
3300.00,0.8142
3299.00,0.8129
3298.00,0.8117
3297.00,0.8105
3296.00,0.8091
3295.00,0.8077
3294.00,0.8062
3293.00,0.8047
3292.00,0.8034
3291.00,0.8020
3290.00,0.8006
3289.00,0.7993
3288.00,0.7982
3287.00,0.7971
3286.00,0.7960
3285.00,0.7949
3284.00,0.7937
3283.00,0.7926
3282.00,0.7915
3281.00,0.7905
3280.00,0.7895
3279.00,0.7886
3278.00,0.7878
3277.00,0.7870
3276.00,0.7862
3275.00,0.7853
3274.00,0.7845
3273.00,0.7838
3272.00,0.7832
3271.00,0.7826
3270.00,0.7821
3269.00,0.7814
3268.00,0.7808
3267.00,0.7802
3266.00,0.7798
3265.00,0.7795
3264.00,0.7791
3263.00,0.7786
3262.00,0.7782
3261.00,0.7778
3260.00,0.7776
3259.00,0.7774
3258.00,0.7772
3257.00,0.7772
3256.00,0.7770
3255.00,0.7768
3254.00,0.7766
3253.00,0.7764
3252.00,0.7762
3251.00,0.7760
3250.00,0.7759
3249.00,0.7758
3248.00,0.7757
3247.00,0.7757
3246.00,0.7756
3245.00,0.7755
3244.00,0.7753
3243.00,0.7752
3242.00,0.7751
3241.00,0.7751
3240.00,0.7751
3239.00,0.7750
3238.00,0.7748
3237.00,0.7748
3236.00,0.7748
3235.00,0.7748
3234.00,0.7747
3233.00,0.7747
3232.00,0.7746
3231.00,0.7744
3230.00,0.7742
3229.00,0.7740
3228.00,0.7740
3227.00,0.7739
3226.00,0.7739
3225.00,0.7737
3224.00,0.7735
3223.00,0.7732
3222.00,0.7731
3221.00,0.7730
3220.00,0.7728
3219.00,0.7726
3218.00,0.7723
3217.00,0.7720
3216.00,0.7717
3215.00,0.7715
3214.00,0.7712
3213.00,0.7710
3212.00,0.7707
3211.00,0.7704
3210.00,0.7700
3209.00,0.7696
3208.00,0.7693
3207.00,0.7689
3206.00,0.7685
3205.00,0.7681
3204.00,0.7677
3203.00,0.7672
3202.00,0.7665
3201.00,0.7658
3200.00,0.7649
3199.00,0.7642
3198.00,0.7635
3197.00,0.7628
3196.00,0.7621
3195.00,0.7612
3194.00,0.7602
3193.00,0.7591
3192.00,0.7580
3191.00,0.7567
3190.00,0.7555
3189.00,0.7543
3188.00,0.7530
3187.00,0.7517
3186.00,0.7504
3185.00,0.7490
3184.00,0.7477
3183.00,0.7463
3182.00,0.7450
3181.00,0.7436
3180.00,0.7421
3179.00,0.7405
3178.00,0.7389
3177.00,0.7373
3176.00,0.7357
3175.00,0.7340
3174.00,0.7322
3173.00,0.7305
3172.00,0.7287
3171.00,0.7269
3170.00,0.7251
3169.00,0.7233
3168.00,0.7214
3167.00,0.7195
3166.00,0.7175
3165.00,0.7154
3164.00,0.7134
3163.00,0.7114
3162.00,0.7096
3161.00,0.7078
3160.00,0.7060
3159.00,0.7041
3158.00,0.7022
3157.00,0.7004
3156.00,0.6986
3155.00,0.6968
3154.00,0.6951
3153.00,0.6934
3152.00,0.6917
3151.00,0.6901
3150.00,0.6884
3149.00,0.6867
3148.00,0.6851
3147.00,0.6836
3146.00,0.6820
3145.00,0.6805
3144.00,0.6790
3143.00,0.6774
3142.00,0.6759
3141.00,0.6745
3140.00,0.6732
3139.00,0.6719
3138.00,0.6707
3137.00,0.6697
3136.00,0.6686
3135.00,0.6677
3134.00,0.6667
3133.00,0.6658
3132.00,0.6648
3131.00,0.6639
3130.00,0.6630
3129.00,0.6623
3128.00,0.6617
3127.00,0.6611
3126.00,0.6605
3125.00,0.6601
3124.00,0.6598
3123.00,0.6595
3122.00,0.6593
3121.00,0.6591
3120.00,0.6590
3119.00,0.6590
3118.00,0.6591
3117.00,0.6593
3116.00,0.6596
3115.00,0.6600
3114.00,0.6606
3113.00,0.6611
3112.00,0.6617
3111.00,0.6623
3110.00,0.6630
3109.00,0.6638
3108.00,0.6648
3107.00,0.6658
3106.00,0.6668
3105.00,0.6678
3104.00,0.6689
3103.00,0.6700
3102.00,0.6712
3101.00,0.6725
3100.00,0.6740
3099.00,0.6756
3098.00,0.6774
3097.00,0.6793
3096.00,0.6815
3095.00,0.6838
3094.00,0.6864
3093.00,0.6891
3092.00,0.6921
3091.00,0.6952
3090.00,0.6984
3089.00,0.7019
3088.00,0.7055
3087.00,0.7093
3086.00,0.7132
3085.00,0.7173
3084.00,0.7214
3083.00,0.7259
3082.00,0.7306
3081.00,0.7357
3080.00,0.7410
3079.00,0.7468
3078.00,0.7529
3077.00,0.7595
3076.00,0.7663
3075.00,0.7735
3074.00,0.7810
3073.00,0.7887
3072.00,0.7966
3071.00,0.8046
3070.00,0.8126
3069.00,0.8206
3068.00,0.8285
3067.00,0.8363
3066.00,0.8439
3065.00,0.8512
3064.00,0.8580
3063.00,0.8641
3062.00,0.8697
3061.00,0.8749
3060.00,0.8797
3059.00,0.8843
3058.00,0.8888
3057.00,0.8933
3056.00,0.8979
3055.00,0.9025
3054.00,0.9073
3053.00,0.9123
3052.00,0.9176
3051.00,0.9232
3050.00,0.9291
3049.00,0.9352
3048.00,0.9415
3047.00,0.9481
3046.00,0.9549
3045.00,0.9619
3044.00,0.9688
3043.00,0.9756
3042.00,0.9823
3041.00,0.9888
3040.00,0.9949
3039.00,1.0008
3038.00,1.0066
3037.00,1.0125
3036.00,1.0190
3035.00,1.0261
3034.00,1.0340
3033.00,1.0430
3032.00,1.0528
3031.00,1.0634
3030.00,1.0747
3029.00,1.0865
3028.00,1.0988
3027.00,1.1115
3026.00,1.1246
3025.00,1.1379
3024.00,1.1512
3023.00,1.1645
3022.00,1.1780
3021.00,1.1918
3020.00,1.2062
3019.00,1.2211
3018.00,1.2367
3017.00,1.2529
3016.00,1.2696
3015.00,1.2868
3014.00,1.3046
3013.00,1.3232
3012.00,1.3428
3011.00,1.3634
3010.00,1.3855
3009.00,1.4092
3008.00,1.4345
3007.00,1.4608
3006.00,1.4880
3005.00,1.5161
3004.00,1.5453
3003.00,1.5755
3002.00,1.6070
3001.00,1.6401
3000.00,1.6752
2999.00,1.7124
2998.00,1.7518
2997.00,1.7934
2996.00,1.8377
2995.00,1.8853
2994.00,1.9371
2993.00,1.9942
2992.00,2.0575
2991.00,2.1278
2990.00,2.2050
2989.00,2.2884
2988.00,2.3783
2987.00,2.4765
2986.00,2.5845
2985.00,2.6987
2984.00,2.8118
2983.00,2.9208
2982.00,3.0305
2981.00,3.1451
2980.00,3.2615
2979.00,3.3842
2978.00,3.5385
2977.00,3.7541
2976.00,4.0291
2975.00,4.2533
2974.00,4.3005
2973.00,4.3193
2972.00,4.3608
2971.00,4.2877
2970.00,4.0919
2969.00,3.9089
2968.00,3.8191
2967.00,3.8195
2966.00,3.9328
2965.00,4.1996
2964.00,4.3724
2963.00,4.2698
2962.00,4.2181
2961.00,4.3540
2960.00,4.3321
2959.00,4.1116
2958.00,3.9414
2957.00,3.8671
2956.00,3.8294
2955.00,3.8323
2954.00,3.8794
2953.00,3.8819
2952.00,3.8129
2951.00,3.7657
2950.00,3.8043
2949.00,3.9644
2948.00,4.2001
2947.00,4.3024
2946.00,4.2566
2945.00,4.2109
2944.00,4.1642
2943.00,4.0398
2942.00,3.9303
2941.00,3.9326
2940.00,4.0687
2939.00,4.3826
2938.00,4.6799
2937.00,4.4236
2936.00,4.2309
2935.00,4.2893
2934.00,4.7061
2933.00,4.6005
2932.00,4.3707
2931.00,4.3019
2930.00,4.5290
2929.00,4.6172
2928.00,4.3625
2927.00,4.1219
2926.00,4.0047
2925.00,4.0427
2924.00,4.0607
2923.00,3.9584
2922.00,3.8987
2921.00,3.9979
2920.00,4.3227
2919.00,4.4815
2918.00,4.1780
2917.00,3.9657
2916.00,3.9030
2915.00,3.9834
2914.00,4.0949
2913.00,4.1527
2912.00,4.1893
2911.00,4.1914
2910.00,4.1285
2909.00,4.0839
2908.00,4.1464
2907.00,4.2320
2906.00,4.3272
2905.00,4.3542
2904.00,4.1767
2903.00,4.0443
2902.00,4.0086
2901.00,4.1273
2900.00,4.2582
2899.00,4.3388
2898.00,4.4600
2897.00,4.6678
2896.00,4.8335
2895.00,4.5275
2894.00,4.2753
2893.00,4.2167
2892.00,4.3094
2891.00,4.4667
2890.00,4.6018
2889.00,4.3885
2888.00,4.2425
2887.00,4.3259
2886.00,4.3789
2885.00,4.1441
2884.00,3.9591
2883.00,3.9421
2882.00,4.0290
2881.00,4.1421
2880.00,4.2721
2879.00,4.2955
2878.00,4.2190
2877.00,4.1601
2876.00,4.1320
2875.00,4.0928
2874.00,4.0383
2873.00,4.0079
2872.00,4.0446
2871.00,4.1697
2870.00,4.2767
2869.00,4.2794
2868.00,4.2548
2867.00,4.2121
2866.00,4.1765
2865.00,4.1702
2864.00,4.1642
2863.00,4.0393
2862.00,3.8904
2861.00,3.8454
2860.00,3.9501
2859.00,4.2512
2858.00,4.4219
2857.00,4.1646
2856.00,4.0009
2855.00,4.0622
2854.00,4.3123
2853.00,4.6738
2852.00,4.9122
2851.00,4.4745
2850.00,4.1778
2849.00,4.0693
2848.00,4.0965
2847.00,4.1966
2846.00,4.3531
2845.00,4.4863
2844.00,4.5280
2843.00,4.3255
2842.00,3.9763
2841.00,3.7500
2840.00,3.6582
2839.00,3.6772
2838.00,3.7202
2837.00,3.7073
2836.00,3.6257
2835.00,3.5107
2834.00,3.3850
2833.00,3.2436
2832.00,3.0944
2831.00,2.9545
2830.00,2.8277
2829.00,2.7066
2828.00,2.5883
2827.00,2.4756
2826.00,2.3712
2825.00,2.2757
2824.00,2.1881
2823.00,2.1072
2822.00,2.0318
2821.00,1.9609
2820.00,1.8946
2819.00,1.8335
2818.00,1.7776
2817.00,1.7262
2816.00,1.6781
2815.00,1.6324
2814.00,1.5891
2813.00,1.5481
2812.00,1.5093
2811.00,1.4724
2810.00,1.4374
2809.00,1.4041
2808.00,1.3726
2807.00,1.3428
2806.00,1.3146
2805.00,1.2878
2804.00,1.2623
2803.00,1.2379
2802.00,1.2145
2801.00,1.1919
2800.00,1.1705
2799.00,1.1501
2798.00,1.1305
2797.00,1.1115
2796.00,1.0930
2795.00,1.0752
2794.00,1.0582
2793.00,1.0418
2792.00,1.0258
2791.00,1.0099
2790.00,0.9944
2789.00,0.9791
2788.00,0.9642
2787.00,0.9495
2786.00,0.9353
2785.00,0.9215
2784.00,0.9083
2783.00,0.8955
2782.00,0.8831
2781.00,0.8711
2780.00,0.8595
2779.00,0.8482
2778.00,0.8376
2777.00,0.8275
2776.00,0.8181
2775.00,0.8091
2774.00,0.8007
2773.00,0.7928
2772.00,0.7854
2771.00,0.7786
2770.00,0.7723
2769.00,0.7666
2768.00,0.7614
2767.00,0.7567
2766.00,0.7526
2765.00,0.7490
2764.00,0.7459
2763.00,0.7431
2762.00,0.7407
2761.00,0.7385
2760.00,0.7365
2759.00,0.7346
2758.00,0.7328
2757.00,0.7310
2756.00,0.7294
2755.00,0.7280
2754.00,0.7267
2753.00,0.7256
2752.00,0.7248
2751.00,0.7244
2750.00,0.7242
2749.00,0.7243
2748.00,0.7248
2747.00,0.7255
2746.00,0.7267
2745.00,0.7282
2744.00,0.7301
2743.00,0.7324
2742.00,0.7353
2741.00,0.7388
2740.00,0.7429
2739.00,0.7476
2738.00,0.7530
2737.00,0.7591
2736.00,0.7659
2735.00,0.7732
2734.00,0.7809
2733.00,0.7884
2732.00,0.7953
2731.00,0.8011
2730.00,0.8055
2729.00,0.8083
2728.00,0.8095
2727.00,0.8092
2726.00,0.8077
2725.00,0.8052
2724.00,0.8021
2723.00,0.7984
2722.00,0.7944
2721.00,0.7899
2720.00,0.7850
2719.00,0.7797
2718.00,0.7742
2717.00,0.7684
2716.00,0.7622
2715.00,0.7557
2714.00,0.7491
2713.00,0.7426
2712.00,0.7363
2711.00,0.7306
2710.00,0.7255
2709.00,0.7210
2708.00,0.7171
2707.00,0.7136
2706.00,0.7107
2705.00,0.7081
2704.00,0.7061
2703.00,0.7045
2702.00,0.7034
2701.00,0.7027
2700.00,0.7023
2699.00,0.7021
2698.00,0.7024
2697.00,0.7029
2696.00,0.7038
2695.00,0.7050
2694.00,0.7063
2693.00,0.7078
2692.00,0.7094
2691.00,0.7111
2690.00,0.7128
2689.00,0.7144
2688.00,0.7160
2687.00,0.7174
2686.00,0.7186
2685.00,0.7196
2684.00,0.7204
2683.00,0.7210
2682.00,0.7217
2681.00,0.7223
2680.00,0.7230
2679.00,0.7237
2678.00,0.7243
2677.00,0.7250
2676.00,0.7256
2675.00,0.7262
2674.00,0.7268
2673.00,0.7271
2672.00,0.7272
2671.00,0.7270
2670.00,0.7265
