Created as New Dataset,
cm-1,A
4000.00,0.4489
3999.00,0.4486
3998.00,0.4482
3997.00,0.4478
3996.00,0.4473
3995.00,0.4468
3994.00,0.4462
3993.00,0.4456
3992.00,0.4450
3991.00,0.4444
3990.00,0.4438
3989.00,0.4433
3988.00,0.4427
3987.00,0.4421
3986.00,0.4415
3985.00,0.4408
3984.00,0.4402
3983.00,0.4395
3982.00,0.4389
3981.00,0.4383
3980.00,0.4377
3979.00,0.4370
3978.00,0.4364
3977.00,0.4358
3976.00,0.4353
3975.00,0.4349
3974.00,0.4344
3973.00,0.4340
3972.00,0.4336
3971.00,0.4332
3970.00,0.4329
3969.00,0.4325
3968.00,0.4321
3967.00,0.4317
3966.00,0.4313
3965.00,0.4309
3964.00,0.4306
3963.00,0.4303
3962.00,0.4300
3961.00,0.4297
3960.00,0.4293
3959.00,0.4290
3958.00,0.4288
3957.00,0.4286
3956.00,0.4285
3955.00,0.4284
3954.00,0.4283
3953.00,0.4281
3952.00,0.4280
3951.00,0.4277
3950.00,0.4275
3949.00,0.4272
3948.00,0.4270
3947.00,0.4269
3946.00,0.4268
3945.00,0.4266
3944.00,0.4265
3943.00,0.4265
3942.00,0.4264
3941.00,0.4264
3940.00,0.4263
3939.00,0.4262
3938.00,0.4261
3937.00,0.4261
3936.00,0.4260
3935.00,0.4259
3934.00,0.4257
3933.00,0.4256
3932.00,0.4255
3931.00,0.4254
3930.00,0.4252
3929.00,0.4250
3928.00,0.4248
3927.00,0.4247
3926.00,0.4246
3925.00,0.4246
3924.00,0.4246
3923.00,0.4244
3922.00,0.4242
3921.00,0.4241
3920.00,0.4239
3919.00,0.4238
3918.00,0.4236
3917.00,0.4234
3916.00,0.4233
3915.00,0.4231
3914.00,0.4230
3913.00,0.4229
3912.00,0.4227
3911.00,0.4225
3910.00,0.4224
3909.00,0.4223
3908.00,0.4221
3907.00,0.4219
3906.00,0.4217
3905.00,0.4216
3904.00,0.4217
3903.00,0.4217
3902.00,0.4216
3901.00,0.4214
3900.00,0.4211
3899.00,0.4209
3898.00,0.4208
3897.00,0.4207
3896.00,0.4206
3895.00,0.4206
3894.00,0.4204
3893.00,0.4201
3892.00,0.4198
3891.00,0.4198
3890.00,0.4197
3889.00,0.4194
3888.00,0.4189
3887.00,0.4186
3886.00,0.4186
3885.00,0.4189
3884.00,0.4189
3883.00,0.4187
3882.00,0.4183
3881.00,0.4181
3880.00,0.4181
3879.00,0.4181
3878.00,0.4179
3877.00,0.4174
3876.00,0.4170
3875.00,0.4170
3874.00,0.4173
3873.00,0.4172
3872.00,0.4168
3871.00,0.4164
3870.00,0.4163
3869.00,0.4163
3868.00,0.4162
3867.00,0.4159
3866.00,0.4157
3865.00,0.4156
3864.00,0.4156
3863.00,0.4153
3862.00,0.4149
3861.00,0.4144
3860.00,0.4140
3859.00,0.4139
3858.00,0.4139
3857.00,0.4139
3856.00,0.4135
3855.00,0.4132
3854.00,0.4133
3853.00,0.4135
3852.00,0.4134
3851.00,0.4131
3850.00,0.4129
3849.00,0.4128
3848.00,0.4128
3847.00,0.4128
3846.00,0.4126
3845.00,0.4124
3844.00,0.4123
3843.00,0.4122
3842.00,0.4122
3841.00,0.4121
3840.00,0.4119
3839.00,0.4117
3838.00,0.4116
3837.00,0.4115
3836.00,0.4114
3835.00,0.4113
3834.00,0.4111
3833.00,0.4109
3832.00,0.4108
3831.00,0.4108
3830.00,0.4107
3829.00,0.4104
3828.00,0.4101
3827.00,0.4099
3826.00,0.4099
3825.00,0.4099
3824.00,0.4097
3823.00,0.4093
3822.00,0.4092
3821.00,0.4094
3820.00,0.4095
3819.00,0.4092
3818.00,0.4085
3817.00,0.4081
3816.00,0.4080
3815.00,0.4079
3814.00,0.4075
3813.00,0.4070
3812.00,0.4066
3811.00,0.4065
3810.00,0.4062
3809.00,0.4057
3808.00,0.4052
3807.00,0.4050
3806.00,0.4050
3805.00,0.4048
3804.00,0.4044
3803.00,0.4039
3802.00,0.4038
3801.00,0.4039
3800.00,0.4038
3799.00,0.4034
3798.00,0.4030
3797.00,0.4027
3796.00,0.4026
3795.00,0.4023
3794.00,0.4020
3793.00,0.4016
3792.00,0.4013
3791.00,0.4011
3790.00,0.4010
3789.00,0.4008
3788.00,0.4006
3787.00,0.4003
3786.00,0.3999
3785.00,0.3996
3784.00,0.3994
3783.00,0.3992
3782.00,0.3989
3781.00,0.3986
3780.00,0.3983
3779.00,0.3980
3778.00,0.3977
3777.00,0.3972
3776.00,0.3968
3775.00,0.3966
3774.00,0.3965
3773.00,0.3962
3772.00,0.3958
3771.00,0.3955
3770.00,0.3953
3769.00,0.3952
3768.00,0.3950
3767.00,0.3946
3766.00,0.3944
3765.00,0.3943
3764.00,0.3942
3763.00,0.3940
3762.00,0.3937
3761.00,0.3935
3760.00,0.3933
3759.00,0.3931
3758.00,0.3928
3757.00,0.3926
3756.00,0.3924
3755.00,0.3922
3754.00,0.3919
3753.00,0.3917
3752.00,0.3915
3751.00,0.3911
3750.00,0.3910
3749.00,0.3912
3748.00,0.3914
3747.00,0.3911
3746.00,0.3907
3745.00,0.3907
3744.00,0.3909
3743.00,0.3909
3742.00,0.3905
3741.00,0.3903
3740.00,0.3904
3739.00,0.3905
3738.00,0.3905
3737.00,0.3905
3736.00,0.3905
3735.00,0.3904
3734.00,0.3902
3733.00,0.3898
3732.00,0.3897
3731.00,0.3896
3730.00,0.3896
3729.00,0.3894
3728.00,0.3891
3727.00,0.3890
3726.00,0.3889
3725.00,0.3887
3724.00,0.3884
3723.00,0.3881
3722.00,0.3880
3721.00,0.3880
3720.00,0.3879
3719.00,0.3877
3718.00,0.3876
3717.00,0.3876
3716.00,0.3877
3715.00,0.3877
3714.00,0.3877
3713.00,0.3878
3712.00,0.3880
3711.00,0.3881
3710.00,0.3881
3709.00,0.3880
3708.00,0.3880
3707.00,0.3880
3706.00,0.3881
3705.00,0.3883
3704.00,0.3885
3703.00,0.3886
3702.00,0.3888
3701.00,0.3890
3700.00,0.3891
3699.00,0.3892
3698.00,0.3893
3697.00,0.3896
3696.00,0.3900
3695.00,0.3905
3694.00,0.3909
3693.00,0.3915
3692.00,0.3921
3691.00,0.3928
3690.00,0.3935
3689.00,0.3943
3688.00,0.3952
3687.00,0.3961
3686.00,0.3970
3685.00,0.3979
3684.00,0.3990
3683.00,0.4000
3682.00,0.4010
3681.00,0.4021
3680.00,0.4034
3679.00,0.4048
3678.00,0.4059
3677.00,0.4071
3676.00,0.4090
3675.00,0.4112
3674.00,0.4130
3673.00,0.4144
3672.00,0.4158
3671.00,0.4179
3670.00,0.4204
3669.00,0.4228
3668.00,0.4248
3667.00,0.4266
3666.00,0.4285
3665.00,0.4305
3664.00,0.4326
3663.00,0.4348
3662.00,0.4370
3661.00,0.4394
3660.00,0.4417
3659.00,0.4440
3658.00,0.4465
3657.00,0.4495
3656.00,0.4530
3655.00,0.4565
3654.00,0.4599
3653.00,0.4634
3652.00,0.4677
3651.00,0.4732
3650.00,0.4802
3649.00,0.4883
3648.00,0.4969
3647.00,0.5050
3646.00,0.5120
3645.00,0.5177
3644.00,0.5221
3643.00,0.5255
3642.00,0.5279
3641.00,0.5292
3640.00,0.5296
3639.00,0.5295
3638.00,0.5290
3637.00,0.5285
3636.00,0.5281
3635.00,0.5282
3634.00,0.5287
3633.00,0.5296
3632.00,0.5306
3631.00,0.5316
3630.00,0.5333
3629.00,0.5357
3628.00,0.5383
3627.00,0.5405
3626.00,0.5424
3625.00,0.5443
3624.00,0.5464
3623.00,0.5485
3622.00,0.5504
3621.00,0.5524
3620.00,0.5545
3619.00,0.5569
3618.00,0.5591
3617.00,0.5611
3616.00,0.5628
3615.00,0.5644
3614.00,0.5661
3613.00,0.5678
3612.00,0.5693
3611.00,0.5706
3610.00,0.5718
3609.00,0.5732
3608.00,0.5746
3607.00,0.5759
3606.00,0.5770
3605.00,0.5780
3604.00,0.5788
3603.00,0.5794
3602.00,0.5799
3601.00,0.5804
3600.00,0.5808
3599.00,0.5810
3598.00,0.5810
3597.00,0.5809
3596.00,0.5808
3595.00,0.5807
3594.00,0.5806
3593.00,0.5806
3592.00,0.5805
3591.00,0.5803
3590.00,0.5801
3589.00,0.5800
3588.00,0.5801
3587.00,0.5804
3586.00,0.5806
3585.00,0.5808
3584.00,0.5809
3583.00,0.5810
3582.00,0.5812
3581.00,0.5815
3580.00,0.5818
3579.00,0.5820
3578.00,0.5821
3577.00,0.5823
3576.00,0.5823
3575.00,0.5824
3574.00,0.5825
3573.00,0.5827
3572.00,0.5829
3571.00,0.5830
3570.00,0.5831
3569.00,0.5832
3568.00,0.5833
3567.00,0.5834
3566.00,0.5834
3565.00,0.5833
3564.00,0.5833
3563.00,0.5832
3562.00,0.5832
3561.00,0.5832
3560.00,0.5831
3559.00,0.5831
3558.00,0.5831
3557.00,0.5831
3556.00,0.5831
3555.00,0.5831
3554.00,0.5831
3553.00,0.5832
3552.00,0.5832
3551.00,0.5832
3550.00,0.5832
3549.00,0.5831
3548.00,0.5831
3547.00,0.5831
3546.00,0.5832
3545.00,0.5833
3544.00,0.5834
3543.00,0.5835
3542.00,0.5836
3541.00,0.5837
3540.00,0.5837
3539.00,0.5837
3538.00,0.5836
3537.00,0.5836
3536.00,0.5837
3535.00,0.5838
3534.00,0.5838
3533.00,0.5839
3532.00,0.5839
3531.00,0.5839
3530.00,0.5840
3529.00,0.5842
3528.00,0.5845
3527.00,0.5848
3526.00,0.5850
3525.00,0.5852
3524.00,0.5855
3523.00,0.5858
3522.00,0.5860
3521.00,0.5863
3520.00,0.5866
3519.00,0.5869
3518.00,0.5872
3517.00,0.5876
3516.00,0.5879
3515.00,0.5883
3514.00,0.5887
3513.00,0.5891
3512.00,0.5894
3511.00,0.5896
3510.00,0.5900
3509.00,0.5905
3508.00,0.5910
3507.00,0.5916
3506.00,0.5921
3505.00,0.5927
3504.00,0.5933
3503.00,0.5938
3502.00,0.5943
3501.00,0.5947
3500.00,0.5952
3499.00,0.5958
3498.00,0.5964
3497.00,0.5970
3496.00,0.5976
3495.00,0.5982
3494.00,0.5987
3493.00,0.5993
3492.00,0.5999
3491.00,0.6005
3490.00,0.6011
3489.00,0.6016
3488.00,0.6022
3487.00,0.6027
3486.00,0.6032
3485.00,0.6037
3484.00,0.6041
3483.00,0.6045
3482.00,0.6048
3481.00,0.6050
3480.00,0.6052
3479.00,0.6053
3478.00,0.6055
3477.00,0.6057
3476.00,0.6060
3475.00,0.6062
3474.00,0.6064
3473.00,0.6066
3472.00,0.6068
3471.00,0.6070
3470.00,0.6073
3469.00,0.6076
3468.00,0.6079
3467.00,0.6080
3466.00,0.6081
3465.00,0.6081
3464.00,0.6081
3463.00,0.6081
3462.00,0.6082
3461.00,0.6084
3460.00,0.6086
3459.00,0.6088
3458.00,0.6089
3457.00,0.6091
3456.00,0.6093
3455.00,0.6095
3454.00,0.6096
3453.00,0.6097
3452.00,0.6100
3451.00,0.6102
3450.00,0.6105
3449.00,0.6108
3448.00,0.6111
3447.00,0.6114
3446.00,0.6117
3445.00,0.6121
3444.00,0.6126
3443.00,0.6131
3442.00,0.6136
3441.00,0.6140
3440.00,0.6145
3439.00,0.6149
3438.00,0.6153
3437.00,0.6157
3436.00,0.6159
3435.00,0.6160
3434.00,0.6159
3433.00,0.6157
3432.00,0.6155
3431.00,0.6153
3430.00,0.6151
3429.00,0.6149
3428.00,0.6147
3427.00,0.6144
3426.00,0.6141
3425.00,0.6138
3424.00,0.6135
3423.00,0.6132
3422.00,0.6130
3421.00,0.6128
3420.00,0.6125
3419.00,0.6122
3418.00,0.6119
3417.00,0.6117
3416.00,0.6115
3415.00,0.6113
3414.00,0.6110
3413.00,0.6108
3412.00,0.6106
3411.00,0.6104
3410.00,0.6102
3409.00,0.6100
3408.00,0.6098
3407.00,0.6095
3406.00,0.6092
3405.00,0.6089
3404.00,0.6086
3403.00,0.6084
3402.00,0.6082
3401.00,0.6080
3400.00,0.6078
3399.00,0.6075
3398.00,0.6072
3397.00,0.6068
3396.00,0.6065
3395.00,0.6062
3394.00,0.6059
3393.00,0.6056
3392.00,0.6053
3391.00,0.6050
3390.00,0.6047
3389.00,0.6043
3388.00,0.6039
3387.00,0.6034
3386.00,0.6030
3385.00,0.6026
3384.00,0.6022
3383.00,0.6018
3382.00,0.6013
3381.00,0.6007
3380.00,0.6002
3379.00,0.5998
3378.00,0.5994
3377.00,0.5990
3376.00,0.5987
3375.00,0.5983
3374.00,0.5979
3373.00,0.5975
3372.00,0.5971
3371.00,0.5965
3370.00,0.5959
3369.00,0.5954
3368.00,0.5949
3367.00,0.5944
3366.00,0.5939
3365.00,0.5935
3364.00,0.5930
3363.00,0.5925
3362.00,0.5920
3361.00,0.5915
3360.00,0.5909
3359.00,0.5904
3358.00,0.5899
3357.00,0.5894
3356.00,0.5888
3355.00,0.5882
3354.00,0.5876
3353.00,0.5871
3352.00,0.5866
3351.00,0.5861
3350.00,0.5856
3349.00,0.5851
3348.00,0.5845
3347.00,0.5838
3346.00,0.5831
3345.00,0.5824
3344.00,0.5818
3343.00,0.5812
3342.00,0.5806
3341.00,0.5801
3340.00,0.5794
3339.00,0.5788
3338.00,0.5781
3337.00,0.5773
3336.00,0.5765
3335.00,0.5757
3334.00,0.5749
3333.00,0.5741
3332.00,0.5734
3331.00,0.5726
3330.00,0.5719
3329.00,0.5711
3328.00,0.5704
3327.00,0.5696
3326.00,0.5689
3325.00,0.5681
3324.00,0.5672
3323.00,0.5663
3322.00,0.5653
3321.00,0.5645
3320.00,0.5636
3319.00,0.5628
3318.00,0.5620
3317.00,0.5612
3316.00,0.5605
3315.00,0.5598
3314.00,0.5591
3313.00,0.5584
3312.00,0.5577
3311.00,0.5569
3310.00,0.5561
3309.00,0.5554
3308.00,0.5547
3307.00,0.5540
3306.00,0.5533
3305.00,0.5526
3304.00,0.5519
3303.00,0.5512
3302.00,0.5505
3301.00,0.5499
3300.00,0.5493
3299.00,0.5488
3298.00,0.5482
3297.00,0.5476
3296.00,0.5470
3295.00,0.5463
3294.00,0.5456
3293.00,0.5450
3292.00,0.5444
3291.00,0.5438
3290.00,0.5433
3289.00,0.5428
3288.00,0.5423
3287.00,0.5419
3286.00,0.5414
3285.00,0.5410
3284.00,0.5405
3283.00,0.5400
3282.00,0.5395
3281.00,0.5390
3280.00,0.5386
3279.00,0.5382
3278.00,0.5379
3277.00,0.5375
3276.00,0.5372
3275.00,0.5368
3274.00,0.5363
3273.00,0.5358
3272.00,0.5354
3271.00,0.5351
3270.00,0.5348
3269.00,0.5345
3268.00,0.5343
3267.00,0.5340
3266.00,0.5336
3265.00,0.5333
3264.00,0.5330
3263.00,0.5328
3262.00,0.5326
3261.00,0.5323
3260.00,0.5320
3259.00,0.5318
3258.00,0.5317
3257.00,0.5316
3256.00,0.5315
3255.00,0.5314
3254.00,0.5313
3253.00,0.5311
3252.00,0.5310
3251.00,0.5308
3250.00,0.5307
3249.00,0.5305
3248.00,0.5304
3247.00,0.5303
3246.00,0.5303
3245.00,0.5303
3244.00,0.5303
3243.00,0.5304
3242.00,0.5305
3241.00,0.5305
3240.00,0.5306
3239.00,0.5306
3238.00,0.5307
3237.00,0.5309
3236.00,0.5311
3235.00,0.5312
3234.00,0.5314
3233.00,0.5316
3232.00,0.5319
3231.00,0.5321
3230.00,0.5324
3229.00,0.5327
3228.00,0.5330
3227.00,0.5333
3226.00,0.5336
3225.00,0.5340
3224.00,0.5344
3223.00,0.5348
3222.00,0.5352
3221.00,0.5356
3220.00,0.5361
3219.00,0.5366
3218.00,0.5371
3217.00,0.5377
3216.00,0.5383
3215.00,0.5389
3214.00,0.5396
3213.00,0.5403
3212.00,0.5410
3211.00,0.5416
3210.00,0.5423
3209.00,0.5430
3208.00,0.5438
3207.00,0.5445
3206.00,0.5452
3205.00,0.5459
3204.00,0.5466
3203.00,0.5472
3202.00,0.5478
3201.00,0.5484
3200.00,0.5491
3199.00,0.5498
3198.00,0.5504
3197.00,0.5510
3196.00,0.5515
3195.00,0.5520
3194.00,0.5524
3193.00,0.5528
3192.00,0.5533
3191.00,0.5536
3190.00,0.5539
3189.00,0.5542
3188.00,0.5545
3187.00,0.5547
3186.00,0.5549
3185.00,0.5551
3184.00,0.5552
3183.00,0.5552
3182.00,0.5552
3181.00,0.5552
3180.00,0.5552
3179.00,0.5551
3178.00,0.5549
3177.00,0.5547
3176.00,0.5545
3175.00,0.5543
3174.00,0.5540
3173.00,0.5537
3172.00,0.5534
3171.00,0.5531
3170.00,0.5527
3169.00,0.5522
3168.00,0.5517
3167.00,0.5513
3166.00,0.5508
3165.00,0.5503
3164.00,0.5498
3163.00,0.5493
3162.00,0.5488
3161.00,0.5482
3160.00,0.5476
3159.00,0.5470
3158.00,0.5465
3157.00,0.5460
3156.00,0.5455
3155.00,0.5449
3154.00,0.5443
3153.00,0.5436
3152.00,0.5430
3151.00,0.5425
3150.00,0.5420
3149.00,0.5415
3148.00,0.5410
3147.00,0.5405
3146.00,0.5400
3145.00,0.5395
3144.00,0.5390
3143.00,0.5386
3142.00,0.5383
3141.00,0.5380
3140.00,0.5377
3139.00,0.5373
3138.00,0.5370
3137.00,0.5367
3136.00,0.5364
3135.00,0.5362
3134.00,0.5361
3133.00,0.5360
3132.00,0.5360
3131.00,0.5359
3130.00,0.5358
3129.00,0.5358
3128.00,0.5358
3127.00,0.5358
3126.00,0.5359
3125.00,0.5360
3124.00,0.5361
3123.00,0.5363
3122.00,0.5367
3121.00,0.5371
3120.00,0.5375
3119.00,0.5380
3118.00,0.5385
3117.00,0.5391
3116.00,0.5397
3115.00,0.5404
3114.00,0.5411
3113.00,0.5419
3112.00,0.5428
3111.00,0.5438
3110.00,0.5449
3109.00,0.5462
3108.00,0.5474
3107.00,0.5487
3106.00,0.5499
3105.00,0.5511
3104.00,0.5523
3103.00,0.5534
3102.00,0.5545
3101.00,0.5557
3100.00,0.5569
3099.00,0.5582
3098.00,0.5594
3097.00,0.5608
3096.00,0.5623
3095.00,0.5639
3094.00,0.5657
3093.00,0.5677
3092.00,0.5699
3091.00,0.5725
3090.00,0.5752
3089.00,0.5781
3088.00,0.5812
3087.00,0.5846
3086.00,0.5880
3085.00,0.5916
3084.00,0.5952
3083.00,0.5986
3082.00,0.6019
3081.00,0.6052
3080.00,0.6086
3079.00,0.6122
3078.00,0.6160
3077.00,0.6201
3076.00,0.6244
3075.00,0.6290
3074.00,0.6339
3073.00,0.6392
3072.00,0.6448
3071.00,0.6506
3070.00,0.6565
3069.00,0.6626
3068.00,0.6688
3067.00,0.6751
3066.00,0.6813
3065.00,0.6875
3064.00,0.6935
3063.00,0.6993
3062.00,0.7047
3061.00,0.7097
3060.00,0.7142
3059.00,0.7182
3058.00,0.7217
3057.00,0.7250
3056.00,0.7282
3055.00,0.7313
3054.00,0.7345
3053.00,0.7379
3052.00,0.7413
3051.00,0.7450
3050.00,0.7489
3049.00,0.7530
3048.00,0.7573
3047.00,0.7619
3046.00,0.7667
3045.00,0.7718
3044.00,0.7770
3043.00,0.7823
3042.00,0.7877
3041.00,0.7932
3040.00,0.7990
3039.00,0.8052
3038.00,0.8118
3037.00,0.8188
3036.00,0.8265
3035.00,0.8348
3034.00,0.8438
3033.00,0.8537
3032.00,0.8643
3031.00,0.8756
3030.00,0.8872
3029.00,0.8991
3028.00,0.9109
3027.00,0.9223
3026.00,0.9332
3025.00,0.9433
3024.00,0.9529
3023.00,0.9624
3022.00,0.9718
3021.00,0.9816
3020.00,0.9917
3019.00,1.0023
3018.00,1.0137
3017.00,1.0258
3016.00,1.0385
3015.00,1.0518
3014.00,1.0658
3013.00,1.0805
3012.00,1.0960
3011.00,1.1124
3010.00,1.1297
3009.00,1.1480
3008.00,1.1676
3007.00,1.1884
3006.00,1.2104
3005.00,1.2334
3004.00,1.2574
3003.00,1.2824
3002.00,1.3089
3001.00,1.3370
3000.00,1.3667
2999.00,1.3981
2998.00,1.4319
2997.00,1.4685
2996.00,1.5087
2995.00,1.5526
2994.00,1.6005
2993.00,1.6527
2992.00,1.7091
2991.00,1.7704
2990.00,1.8373
2989.00,1.9104
2988.00,1.9899
2987.00,2.0764
2986.00,2.1709
2985.00,2.2737
2984.00,2.3826
2983.00,2.4961
2982.00,2.6159
2981.00,2.7462
2980.00,2.8853
2979.00,3.0206
2978.00,3.1367
2977.00,3.2344
2976.00,3.3302
2975.00,3.4301
2974.00,3.5226
2973.00,3.5872
2972.00,3.6213
2971.00,3.6370
2970.00,3.6584
2969.00,3.7168
2968.00,3.8821
2967.00,4.2755
2966.00,4.6253
2965.00,4.7182
2964.00,4.3640
2963.00,4.2285
2962.00,4.1094
2961.00,4.1220
2960.00,4.3253
2959.00,4.3400
2958.00,4.2773
2957.00,4.2700
2956.00,4.2669
2955.00,4.1229
2954.00,3.9888
2953.00,3.9776
2952.00,4.0694
2951.00,4.1519
2950.00,4.1242
2949.00,4.1579
2948.00,4.4090
2947.00,4.5473
2946.00,4.6875
2945.00,4.5326
2944.00,4.2846
2943.00,4.0494
2942.00,3.8817
2941.00,3.8880
2940.00,3.9626
2939.00,4.1362
2938.00,4.4800
2937.00,4.8487
2936.00,4.3808
2935.00,4.0251
2934.00,3.8075
2933.00,3.7313
2932.00,3.7068
2931.00,3.7047
2930.00,3.7012
2929.00,3.6915
2928.00,3.7433
2927.00,3.8912
2926.00,4.0662
2925.00,4.1691
2924.00,4.1138
2923.00,4.0069
2922.00,3.9325
2921.00,3.9089
2920.00,3.9286
2919.00,3.9226
2918.00,3.9023
2917.00,3.8867
2916.00,3.8871
2915.00,3.9434
2914.00,4.0487
2913.00,4.1987
2912.00,4.3177
2911.00,4.1451
2910.00,3.9684
2909.00,3.9144
2908.00,4.0048
2907.00,4.0977
2906.00,4.0973
2905.00,4.0976
2904.00,4.1525
2903.00,4.2453
2902.00,4.2494
2901.00,4.1057
2900.00,3.9725
2899.00,3.9509
2898.00,4.0323
2897.00,4.1716
2896.00,4.3645
2895.00,4.4792
2894.00,4.3115
2893.00,4.0848
2892.00,3.9554
2891.00,3.9378
2890.00,3.9668
2889.00,3.9533
2888.00,3.8749
2887.00,3.8217
2886.00,3.8492
2885.00,3.9273
2884.00,3.9942
2883.00,4.0269
2882.00,4.0108
2881.00,3.9506
2880.00,3.8924
2879.00,3.8723
2878.00,3.8859
2877.00,3.8940
2876.00,3.8907
2875.00,3.9229
2874.00,4.0163
2873.00,4.1554
2872.00,4.2448
2871.00,4.1475
2870.00,4.0820
2869.00,4.1305
2868.00,4.1055
2867.00,3.9751
2866.00,3.8756
2865.00,3.8877
2864.00,3.9238
2863.00,3.9696
2862.00,4.0819
2861.00,4.2510
2860.00,4.5681
2859.00,4.7485
2858.00,4.5647
2857.00,4.3132
2856.00,4.1573
2855.00,4.1170
2854.00,4.1501
2853.00,4.1819
2852.00,4.0261
2851.00,3.8605
2850.00,3.8191
2849.00,3.8768
2848.00,4.0558
2847.00,4.3291
2846.00,4.3462
2845.00,4.3097
2844.00,4.2783
2843.00,4.2119
2842.00,4.0152
2841.00,3.8132
2840.00,3.6582
2839.00,3.5281
2838.00,3.4428
2837.00,3.3687
2836.00,3.2704
2835.00,3.1473
2834.00,3.0112
2833.00,2.8734
2832.00,2.7404
2831.00,2.6135
2830.00,2.4906
2829.00,2.3719
2828.00,2.2608
2827.00,2.1604
2826.00,2.0709
2825.00,1.9903
2824.00,1.9171
2823.00,1.8506
2822.00,1.7901
2821.00,1.7341
2820.00,1.6815
2819.00,1.6317
2818.00,1.5846
2817.00,1.5403
2816.00,1.4986
2815.00,1.4595
2814.00,1.4224
2813.00,1.3871
2812.00,1.3532
2811.00,1.3210
2810.00,1.2903
2809.00,1.2608
2808.00,1.2323
2807.00,1.2049
2806.00,1.1786
2805.00,1.1536
2804.00,1.1300
2803.00,1.1076
2802.00,1.0861
2801.00,1.0656
2800.00,1.0460
2799.00,1.0273
2798.00,1.0095
2797.00,0.9923
2796.00,0.9757
2795.00,0.9596
2794.00,0.9440
2793.00,0.9287
2792.00,0.9138
2791.00,0.8993
2790.00,0.8852
2789.00,0.8713
2788.00,0.8576
2787.00,0.8442
2786.00,0.8311
2785.00,0.8184
2784.00,0.8059
2783.00,0.7938
2782.00,0.7820
2781.00,0.7708
2780.00,0.7599
2779.00,0.7496
2778.00,0.7397
2777.00,0.7303
2776.00,0.7215
2775.00,0.7132
2774.00,0.7055
2773.00,0.6983
2772.00,0.6917
2771.00,0.6856
2770.00,0.6799
2769.00,0.6747
2768.00,0.6700
2767.00,0.6659
2766.00,0.6622
2765.00,0.6590
2764.00,0.6562
2763.00,0.6537
2762.00,0.6515
2761.00,0.6496
2760.00,0.6479
2759.00,0.6464
2758.00,0.6449
2757.00,0.6434
2756.00,0.6421
2755.00,0.6410
2754.00,0.6400
2753.00,0.6391
2752.00,0.6383
2751.00,0.6379
2750.00,0.6378
2749.00,0.6380
2748.00,0.6385
2747.00,0.6393
2746.00,0.6403
2745.00,0.6417
2744.00,0.6435
2743.00,0.6458
2742.00,0.6485
2741.00,0.6516
2740.00,0.6553
2739.00,0.6594
2738.00,0.6641
2737.00,0.6693
2736.00,0.6751
2735.00,0.6813
2734.00,0.6879
2733.00,0.6945
2732.00,0.7008
2731.00,0.7063
2730.00,0.7108
2729.00,0.7139
2728.00,0.7156
2727.00,0.7161
2726.00,0.7156
2725.00,0.7142
2724.00,0.7122
2723.00,0.7095
2722.00,0.7064
2721.00,0.7027
2720.00,0.6986
2719.00,0.6940
2718.00,0.6889
2717.00,0.6834
2716.00,0.6775
2715.00,0.6714
2714.00,0.6653
2713.00,0.6593
2712.00,0.6537
2711.00,0.6486
2710.00,0.6440
2709.00,0.6401
2708.00,0.6367
2707.00,0.6338
2706.00,0.6313
2705.00,0.6293
2704.00,0.6277
2703.00,0.6266
2702.00,0.6259
2701.00,0.6257
2700.00,0.6258
2699.00,0.6262
2698.00,0.6268
2697.00,0.6277
2696.00,0.6290
2695.00,0.6305
2694.00,0.6321
2693.00,0.6340
2692.00,0.6358
2691.00,0.6377
2690.00,0.6396
2689.00,0.6413
2688.00,0.6427
2687.00,0.6438
2686.00,0.6448
2685.00,0.6457
2684.00,0.6464
2683.00,0.6469
2682.00,0.6473
2681.00,0.6475
2680.00,0.6475
2679.00,0.6473
2678.00,0.6472
2677.00,0.6470
2676.00,0.6468
2675.00,0.6465
2674.00,0.6461
2673.00,0.6455
2672.00,0.6449
2671.00,0.6439
2670.00,0.6426
