Created as New Dataset,
cm-1,A
4000.00,0.4041
3999.00,0.4034
3998.00,0.4027
3997.00,0.4021
3996.00,0.4014
3995.00,0.4007
3994.00,0.4001
3993.00,0.3995
3992.00,0.3990
3991.00,0.3985
3990.00,0.3981
3989.00,0.3976
3988.00,0.3970
3987.00,0.3965
3986.00,0.3960
3985.00,0.3955
3984.00,0.3950
3983.00,0.3946
3982.00,0.3942
3981.00,0.3938
3980.00,0.3935
3979.00,0.3932
3978.00,0.3929
3977.00,0.3926
3976.00,0.3923
3975.00,0.3921
3974.00,0.3919
3973.00,0.3917
3972.00,0.3915
3971.00,0.3913
3970.00,0.3912
3969.00,0.3912
3968.00,0.3911
3967.00,0.3911
3966.00,0.3910
3965.00,0.3909
3964.00,0.3908
3963.00,0.3908
3962.00,0.3907
3961.00,0.3908
3960.00,0.3908
3959.00,0.3908
3958.00,0.3909
3957.00,0.3908
3956.00,0.3908
3955.00,0.3907
3954.00,0.3906
3953.00,0.3905
3952.00,0.3905
3951.00,0.3905
3950.00,0.3904
3949.00,0.3903
3948.00,0.3902
3947.00,0.3900
3946.00,0.3898
3945.00,0.3896
3944.00,0.3894
3943.00,0.3892
3942.00,0.3890
3941.00,0.3887
3940.00,0.3885
3939.00,0.3882
3938.00,0.3879
3937.00,0.3876
3936.00,0.3873
3935.00,0.3869
3934.00,0.3866
3933.00,0.3863
3932.00,0.3860
3931.00,0.3857
3930.00,0.3854
3929.00,0.3851
3928.00,0.3849
3927.00,0.3847
3926.00,0.3845
3925.00,0.3842
3924.00,0.3839
3923.00,0.3837
3922.00,0.3835
3921.00,0.3834
3920.00,0.3832
3919.00,0.3830
3918.00,0.3829
3917.00,0.3827
3916.00,0.3824
3915.00,0.3822
3914.00,0.3819
3913.00,0.3816
3912.00,0.3813
3911.00,0.3810
3910.00,0.3807
3909.00,0.3803
3908.00,0.3800
3907.00,0.3797
3906.00,0.3795
3905.00,0.3793
3904.00,0.3791
3903.00,0.3789
3902.00,0.3788
3901.00,0.3787
3900.00,0.3785
3899.00,0.3783
3898.00,0.3780
3897.00,0.3776
3896.00,0.3773
3895.00,0.3769
3894.00,0.3766
3893.00,0.3764
3892.00,0.3763
3891.00,0.3761
3890.00,0.3758
3889.00,0.3757
3888.00,0.3756
3887.00,0.3755
3886.00,0.3753
3885.00,0.3751
3884.00,0.3749
3883.00,0.3749
3882.00,0.3748
3881.00,0.3746
3880.00,0.3745
3879.00,0.3743
3878.00,0.3741
3877.00,0.3740
3876.00,0.3739
3875.00,0.3737
3874.00,0.3735
3873.00,0.3733
3872.00,0.3732
3871.00,0.3731
3870.00,0.3730
3869.00,0.3729
3868.00,0.3730
3867.00,0.3730
3866.00,0.3731
3865.00,0.3730
3864.00,0.3729
3863.00,0.3729
3862.00,0.3728
3861.00,0.3726
3860.00,0.3725
3859.00,0.3724
3858.00,0.3723
3857.00,0.3723
3856.00,0.3722
3855.00,0.3722
3854.00,0.3722
3853.00,0.3722
3852.00,0.3725
3851.00,0.3727
3850.00,0.3727
3849.00,0.3725
3848.00,0.3722
3847.00,0.3719
3846.00,0.3716
3845.00,0.3712
3844.00,0.3708
3843.00,0.3705
3842.00,0.3703
3841.00,0.3702
3840.00,0.3702
3839.00,0.3702
3838.00,0.3701
3837.00,0.3700
3836.00,0.3700
3835.00,0.3699
3834.00,0.3697
3833.00,0.3695
3832.00,0.3692
3831.00,0.3689
3830.00,0.3687
3829.00,0.3685
3828.00,0.3684
3827.00,0.3683
3826.00,0.3680
3825.00,0.3679
3824.00,0.3678
3823.00,0.3677
3822.00,0.3677
3821.00,0.3676
3820.00,0.3675
3819.00,0.3675
3818.00,0.3676
3817.00,0.3677
3816.00,0.3676
3815.00,0.3675
3814.00,0.3674
3813.00,0.3672
3812.00,0.3670
3811.00,0.3667
3810.00,0.3666
3809.00,0.3664
3808.00,0.3662
3807.00,0.3659
3806.00,0.3657
3805.00,0.3656
3804.00,0.3656
3803.00,0.3656
3802.00,0.3655
3801.00,0.3653
3800.00,0.3652
3799.00,0.3651
3798.00,0.3649
3797.00,0.3648
3796.00,0.3645
3795.00,0.3643
3794.00,0.3640
3793.00,0.3638
3792.00,0.3635
3791.00,0.3632
3790.00,0.3630
3789.00,0.3627
3788.00,0.3625
3787.00,0.3624
3786.00,0.3623
3785.00,0.3622
3784.00,0.3622
3783.00,0.3621
3782.00,0.3621
3781.00,0.3621
3780.00,0.3621
3779.00,0.3620
3778.00,0.3619
3777.00,0.3618
3776.00,0.3617
3775.00,0.3615
3774.00,0.3614
3773.00,0.3614
3772.00,0.3613
3771.00,0.3613
3770.00,0.3612
3769.00,0.3611
3768.00,0.3611
3767.00,0.3611
3766.00,0.3610
3765.00,0.3609
3764.00,0.3608
3763.00,0.3607
3762.00,0.3606
3761.00,0.3605
3760.00,0.3604
3759.00,0.3602
3758.00,0.3601
3757.00,0.3599
3756.00,0.3597
3755.00,0.3596
3754.00,0.3596
3753.00,0.3596
3752.00,0.3595
3751.00,0.3595
3750.00,0.3596
3749.00,0.3596
3748.00,0.3597
3747.00,0.3598
3746.00,0.3599
3745.00,0.3600
3744.00,0.3598
3743.00,0.3597
3742.00,0.3597
3741.00,0.3595
3740.00,0.3593
3739.00,0.3592
3738.00,0.3591
3737.00,0.3591
3736.00,0.3590
3735.00,0.3590
3734.00,0.3591
3733.00,0.3592
3732.00,0.3592
3731.00,0.3591
3730.00,0.3590
3729.00,0.3589
3728.00,0.3587
3727.00,0.3585
3726.00,0.3584
3725.00,0.3585
3724.00,0.3587
3723.00,0.3590
3722.00,0.3594
3721.00,0.3600
3720.00,0.3606
3719.00,0.3614
3718.00,0.3621
3717.00,0.3628
3716.00,0.3635
3715.00,0.3642
3714.00,0.3650
3713.00,0.3660
3712.00,0.3671
3711.00,0.3684
3710.00,0.3696
3709.00,0.3706
3708.00,0.3714
3707.00,0.3718
3706.00,0.3720
3705.00,0.3722
3704.00,0.3727
3703.00,0.3737
3702.00,0.3754
3701.00,0.3781
3700.00,0.3815
3699.00,0.3859
3698.00,0.3912
3697.00,0.3973
3696.00,0.4039
3695.00,0.4107
3694.00,0.4175
3693.00,0.4241
3692.00,0.4306
3691.00,0.4370
3690.00,0.4433
3689.00,0.4491
3688.00,0.4541
3687.00,0.4579
3686.00,0.4603
3685.00,0.4613
3684.00,0.4608
3683.00,0.4586
3682.00,0.4549
3681.00,0.4497
3680.00,0.4436
3679.00,0.4373
3678.00,0.4308
3677.00,0.4238
3676.00,0.4166
3675.00,0.4102
3674.00,0.4056
3673.00,0.4027
3672.00,0.4009
3671.00,0.3995
3670.00,0.3986
3669.00,0.3981
3668.00,0.3978
3667.00,0.3978
3666.00,0.3979
3665.00,0.3981
3664.00,0.3985
3663.00,0.3990
3662.00,0.3994
3661.00,0.4000
3660.00,0.4006
3659.00,0.4014
3658.00,0.4023
3657.00,0.4032
3656.00,0.4040
3655.00,0.4048
3654.00,0.4055
3653.00,0.4063
3652.00,0.4071
3651.00,0.4082
3650.00,0.4093
3649.00,0.4103
3648.00,0.4114
3647.00,0.4123
3646.00,0.4130
3645.00,0.4135
3644.00,0.4140
3643.00,0.4145
3642.00,0.4149
3641.00,0.4154
3640.00,0.4158
3639.00,0.4163
3638.00,0.4168
3637.00,0.4172
3636.00,0.4177
3635.00,0.4180
3634.00,0.4183
3633.00,0.4185
3632.00,0.4188
3631.00,0.4192
3630.00,0.4195
3629.00,0.4197
3628.00,0.4198
3627.00,0.4197
3626.00,0.4196
3625.00,0.4193
3624.00,0.4190
3623.00,0.4187
3622.00,0.4183
3621.00,0.4178
3620.00,0.4171
3619.00,0.4164
3618.00,0.4158
3617.00,0.4151
3616.00,0.4145
3615.00,0.4138
3614.00,0.4132
3613.00,0.4125
3612.00,0.4118
3611.00,0.4111
3610.00,0.4105
3609.00,0.4098
3608.00,0.4092
3607.00,0.4086
3606.00,0.4081
3605.00,0.4077
3604.00,0.4073
3603.00,0.4071
3602.00,0.4070
3601.00,0.4069
3600.00,0.4068
3599.00,0.4068
3598.00,0.4069
3597.00,0.4070
3596.00,0.4072
3595.00,0.4075
3594.00,0.4078
3593.00,0.4081
3592.00,0.4084
3591.00,0.4088
3590.00,0.4092
3589.00,0.4097
3588.00,0.4104
3587.00,0.4110
3586.00,0.4117
3585.00,0.4124
3584.00,0.4131
3583.00,0.4139
3582.00,0.4146
3581.00,0.4154
3580.00,0.4161
3579.00,0.4168
3578.00,0.4175
3577.00,0.4183
3576.00,0.4192
3575.00,0.4201
3574.00,0.4210
3573.00,0.4219
3572.00,0.4228
3571.00,0.4236
3570.00,0.4245
3569.00,0.4254
3568.00,0.4265
3567.00,0.4276
3566.00,0.4286
3565.00,0.4296
3564.00,0.4304
3563.00,0.4311
3562.00,0.4317
3561.00,0.4323
3560.00,0.4328
3559.00,0.4332
3558.00,0.4335
3557.00,0.4337
3556.00,0.4340
3555.00,0.4341
3554.00,0.4343
3553.00,0.4344
3552.00,0.4344
3551.00,0.4344
3550.00,0.4343
3549.00,0.4342
3548.00,0.4340
3547.00,0.4338
3546.00,0.4336
3545.00,0.4333
3544.00,0.4329
3543.00,0.4325
3542.00,0.4320
3541.00,0.4316
3540.00,0.4311
3539.00,0.4307
3538.00,0.4301
3537.00,0.4296
3536.00,0.4291
3535.00,0.4285
3534.00,0.4280
3533.00,0.4275
3532.00,0.4270
3531.00,0.4265
3530.00,0.4260
3529.00,0.4254
3528.00,0.4248
3527.00,0.4242
3526.00,0.4238
3525.00,0.4233
3524.00,0.4229
3523.00,0.4225
3522.00,0.4220
3521.00,0.4216
3520.00,0.4212
3519.00,0.4208
3518.00,0.4204
3517.00,0.4200
3516.00,0.4196
3515.00,0.4193
3514.00,0.4189
3513.00,0.4186
3512.00,0.4183
3511.00,0.4180
3510.00,0.4177
3509.00,0.4174
3508.00,0.4171
3507.00,0.4169
3506.00,0.4168
3505.00,0.4166
3504.00,0.4165
3503.00,0.4164
3502.00,0.4163
3501.00,0.4163
3500.00,0.4164
3499.00,0.4165
3498.00,0.4166
3497.00,0.4167
3496.00,0.4169
3495.00,0.4171
3494.00,0.4174
3493.00,0.4177
3492.00,0.4182
3491.00,0.4188
3490.00,0.4194
3489.00,0.4202
3488.00,0.4210
3487.00,0.4219
3486.00,0.4229
3485.00,0.4241
3484.00,0.4254
3483.00,0.4269
3482.00,0.4285
3481.00,0.4304
3480.00,0.4324
3479.00,0.4347
3478.00,0.4373
3477.00,0.4400
3476.00,0.4430
3475.00,0.4462
3474.00,0.4496
3473.00,0.4533
3472.00,0.4572
3471.00,0.4614
3470.00,0.4658
3469.00,0.4704
3468.00,0.4751
3467.00,0.4800
3466.00,0.4848
3465.00,0.4897
3464.00,0.4945
3463.00,0.4992
3462.00,0.5036
3461.00,0.5075
3460.00,0.5111
3459.00,0.5141
3458.00,0.5165
3457.00,0.5184
3456.00,0.5198
3455.00,0.5205
3454.00,0.5206
3453.00,0.5201
3452.00,0.5190
3451.00,0.5173
3450.00,0.5150
3449.00,0.5122
3448.00,0.5090
3447.00,0.5053
3446.00,0.5013
3445.00,0.4972
3444.00,0.4930
3443.00,0.4888
3442.00,0.4846
3441.00,0.4805
3440.00,0.4764
3439.00,0.4724
3438.00,0.4685
3437.00,0.4649
3436.00,0.4615
3435.00,0.4583
3434.00,0.4554
3433.00,0.4527
3432.00,0.4502
3431.00,0.4480
3430.00,0.4461
3429.00,0.4444
3428.00,0.4428
3427.00,0.4415
3426.00,0.4403
3425.00,0.4393
3424.00,0.4385
3423.00,0.4377
3422.00,0.4372
3421.00,0.4368
3420.00,0.4366
3419.00,0.4365
3418.00,0.4364
3417.00,0.4364
3416.00,0.4366
3415.00,0.4368
3414.00,0.4371
3413.00,0.4375
3412.00,0.4378
3411.00,0.4382
3410.00,0.4386
3409.00,0.4391
3408.00,0.4398
3407.00,0.4405
3406.00,0.4413
3405.00,0.4421
3404.00,0.4430
3403.00,0.4438
3402.00,0.4448
3401.00,0.4459
3400.00,0.4470
3399.00,0.4481
3398.00,0.4493
3397.00,0.4506
3396.00,0.4519
3395.00,0.4533
3394.00,0.4548
3393.00,0.4563
3392.00,0.4579
3391.00,0.4596
3390.00,0.4613
3389.00,0.4631
3388.00,0.4648
3387.00,0.4666
3386.00,0.4685
3385.00,0.4704
3384.00,0.4723
3383.00,0.4743
3382.00,0.4763
3381.00,0.4784
3380.00,0.4804
3379.00,0.4824
3378.00,0.4843
3377.00,0.4862
3376.00,0.4880
3375.00,0.4897
3374.00,0.4913
3373.00,0.4927
3372.00,0.4939
3371.00,0.4949
3370.00,0.4958
3369.00,0.4966
3368.00,0.4971
3367.00,0.4973
3366.00,0.4973
3365.00,0.4971
3364.00,0.4968
3363.00,0.4964
3362.00,0.4958
3361.00,0.4949
3360.00,0.4938
3359.00,0.4926
3358.00,0.4912
3357.00,0.4898
3356.00,0.4882
3355.00,0.4866
3354.00,0.4848
3353.00,0.4831
3352.00,0.4813
3351.00,0.4795
3350.00,0.4777
3349.00,0.4758
3348.00,0.4738
3347.00,0.4718
3346.00,0.4699
3345.00,0.4680
3344.00,0.4661
3343.00,0.4642
3342.00,0.4623
3341.00,0.4603
3340.00,0.4583
3339.00,0.4563
3338.00,0.4544
3337.00,0.4526
3336.00,0.4507
3335.00,0.4488
3334.00,0.4470
3333.00,0.4452
3332.00,0.4435
3331.00,0.4419
3330.00,0.4403
3329.00,0.4386
3328.00,0.4370
3327.00,0.4355
3326.00,0.4341
3325.00,0.4327
3324.00,0.4314
3323.00,0.4302
3322.00,0.4289
3321.00,0.4276
3320.00,0.4265
3319.00,0.4254
3318.00,0.4244
3317.00,0.4234
3316.00,0.4225
3315.00,0.4215
3314.00,0.4206
3313.00,0.4198
3312.00,0.4191
3311.00,0.4183
3310.00,0.4177
3309.00,0.4170
3308.00,0.4164
3307.00,0.4159
3306.00,0.4153
3305.00,0.4148
3304.00,0.4142
3303.00,0.4137
3302.00,0.4133
3301.00,0.4129
3300.00,0.4126
3299.00,0.4123
3298.00,0.4120
3297.00,0.4116
3296.00,0.4113
3295.00,0.4109
3294.00,0.4106
3293.00,0.4104
3292.00,0.4101
3291.00,0.4098
3290.00,0.4095
3289.00,0.4092
3288.00,0.4090
3287.00,0.4088
3286.00,0.4087
3285.00,0.4085
3284.00,0.4084
3283.00,0.4082
3282.00,0.4082
3281.00,0.4082
3280.00,0.4082
3279.00,0.4081
3278.00,0.4080
3277.00,0.4079
3276.00,0.4079
3275.00,0.4079
3274.00,0.4080
3273.00,0.4080
3272.00,0.4081
3271.00,0.4082
3270.00,0.4082
3269.00,0.4082
3268.00,0.4083
3267.00,0.4083
3266.00,0.4085
3265.00,0.4086
3264.00,0.4087
3263.00,0.4088
3262.00,0.4088
3261.00,0.4089
3260.00,0.4089
3259.00,0.4090
3258.00,0.4090
3257.00,0.4091
3256.00,0.4093
3255.00,0.4094
3254.00,0.4096
3253.00,0.4097
3252.00,0.4099
3251.00,0.4099
3250.00,0.4100
3249.00,0.4102
3248.00,0.4103
3247.00,0.4105
3246.00,0.4106
3245.00,0.4107
3244.00,0.4109
3243.00,0.4111
3242.00,0.4113
3241.00,0.4114
3240.00,0.4116
3239.00,0.4118
3238.00,0.4121
3237.00,0.4123
3236.00,0.4127
3235.00,0.4130
3234.00,0.4134
3233.00,0.4137
3232.00,0.4141
3231.00,0.4146
3230.00,0.4151
3229.00,0.4155
3228.00,0.4160
3227.00,0.4164
3226.00,0.4168
3225.00,0.4173
3224.00,0.4179
3223.00,0.4185
3222.00,0.4191
3221.00,0.4197
3220.00,0.4203
3219.00,0.4208
3218.00,0.4213
3217.00,0.4219
3216.00,0.4225
3215.00,0.4231
3214.00,0.4236
3213.00,0.4242
3212.00,0.4248
3211.00,0.4254
3210.00,0.4261
3209.00,0.4269
3208.00,0.4277
3207.00,0.4284
3206.00,0.4291
3205.00,0.4299
3204.00,0.4307
3203.00,0.4315
3202.00,0.4323
3201.00,0.4330
3200.00,0.4337
3199.00,0.4344
3198.00,0.4352
3197.00,0.4360
3196.00,0.4368
3195.00,0.4375
3194.00,0.4383
3193.00,0.4391
3192.00,0.4398
3191.00,0.4404
3190.00,0.4410
3189.00,0.4416
3188.00,0.4421
3187.00,0.4424
3186.00,0.4426
3185.00,0.4426
3184.00,0.4425
3183.00,0.4424
3182.00,0.4422
3181.00,0.4420
3180.00,0.4419
3179.00,0.4417
3178.00,0.4416
3177.00,0.4415
3176.00,0.4413
3175.00,0.4412
3174.00,0.4410
3173.00,0.4409
3172.00,0.4409
3171.00,0.4408
3170.00,0.4407
3169.00,0.4406
3168.00,0.4405
3167.00,0.4403
3166.00,0.4402
3165.00,0.4402
3164.00,0.4402
3163.00,0.4401
3162.00,0.4401
3161.00,0.4400
3160.00,0.4399
3159.00,0.4399
3158.00,0.4398
3157.00,0.4398
3156.00,0.4398
3155.00,0.4398
3154.00,0.4397
3153.00,0.4397
3152.00,0.4397
3151.00,0.4397
3150.00,0.4397
3149.00,0.4397
3148.00,0.4397
3147.00,0.4396
3146.00,0.4396
3145.00,0.4396
3144.00,0.4397
3143.00,0.4399
3142.00,0.4400
3141.00,0.4403
3140.00,0.4405
3139.00,0.4407
3138.00,0.4410
3137.00,0.4413
3136.00,0.4418
3135.00,0.4422
3134.00,0.4426
3133.00,0.4431
3132.00,0.4437
3131.00,0.4442
3130.00,0.4447
3129.00,0.4453
3128.00,0.4460
3127.00,0.4467
3126.00,0.4475
3125.00,0.4483
3124.00,0.4492
3123.00,0.4502
3122.00,0.4511
3121.00,0.4520
3120.00,0.4529
3119.00,0.4539
3118.00,0.4549
3117.00,0.4560
3116.00,0.4572
3115.00,0.4585
3114.00,0.4598
3113.00,0.4611
3112.00,0.4623
3111.00,0.4636
3110.00,0.4648
3109.00,0.4660
3108.00,0.4673
3107.00,0.4685
3106.00,0.4697
3105.00,0.4709
3104.00,0.4722
3103.00,0.4734
3102.00,0.4747
3101.00,0.4760
3100.00,0.4774
3099.00,0.4788
3098.00,0.4803
3097.00,0.4818
3096.00,0.4834
3095.00,0.4849
3094.00,0.4864
3093.00,0.4879
3092.00,0.4894
3091.00,0.4909
3090.00,0.4925
3089.00,0.4940
3088.00,0.4955
3087.00,0.4970
3086.00,0.4987
3085.00,0.5005
3084.00,0.5024
3083.00,0.5043
3082.00,0.5064
3081.00,0.5087
3080.00,0.5111
3079.00,0.5137
3078.00,0.5165
3077.00,0.5196
3076.00,0.5230
3075.00,0.5267
3074.00,0.5306
3073.00,0.5347
3072.00,0.5390
3071.00,0.5433
3070.00,0.5477
3069.00,0.5522
3068.00,0.5565
3067.00,0.5608
3066.00,0.5650
3065.00,0.5691
3064.00,0.5730
3063.00,0.5769
3062.00,0.5806
3061.00,0.5842
3060.00,0.5876
3059.00,0.5908
3058.00,0.5938
3057.00,0.5967
3056.00,0.5994
3055.00,0.6019
3054.00,0.6042
3053.00,0.6064
3052.00,0.6085
3051.00,0.6105
3050.00,0.6124
3049.00,0.6143
3048.00,0.6161
3047.00,0.6180
3046.00,0.6201
3045.00,0.6225
3044.00,0.6252
3043.00,0.6283
3042.00,0.6316
3041.00,0.6351
3040.00,0.6389
3039.00,0.6427
3038.00,0.6466
3037.00,0.6505
3036.00,0.6543
3035.00,0.6580
3034.00,0.6618
3033.00,0.6657
3032.00,0.6697
3031.00,0.6738
3030.00,0.6781
3029.00,0.6828
3028.00,0.6880
3027.00,0.6936
3026.00,0.6998
3025.00,0.7066
3024.00,0.7139
3023.00,0.7216
3022.00,0.7299
3021.00,0.7388
3020.00,0.7481
3019.00,0.7581
3018.00,0.7687
3017.00,0.7800
3016.00,0.7919
3015.00,0.8046
3014.00,0.8179
3013.00,0.8319
3012.00,0.8468
3011.00,0.8626
3010.00,0.8795
3009.00,0.8976
3008.00,0.9170
3007.00,0.9376
3006.00,0.9599
3005.00,0.9842
3004.00,1.0105
3003.00,1.0390
3002.00,1.0697
3001.00,1.1030
3000.00,1.1393
2999.00,1.1790
2998.00,1.2225
2997.00,1.2699
2996.00,1.3212
2995.00,1.3766
2994.00,1.4365
2993.00,1.5017
2992.00,1.5728
2991.00,1.6503
2990.00,1.7345
2989.00,1.8254
2988.00,1.9227
2987.00,2.0269
2986.00,2.1398
2985.00,2.2637
2984.00,2.3994
2983.00,2.5463
2982.00,2.7044
2981.00,2.8742
2980.00,3.0547
2979.00,3.2486
2978.00,3.4694
2977.00,3.7433
2976.00,4.0679
2975.00,4.2061
2974.00,4.1503
2973.00,4.1158
2972.00,4.1429
2971.00,4.1258
2970.00,4.0399
2969.00,4.0040
2968.00,4.0268
2967.00,4.0888
2966.00,4.1697
2965.00,4.2582
2964.00,4.3341
2963.00,4.4184
2962.00,4.3774
2961.00,4.2348
2960.00,4.2217
2959.00,4.2130
2958.00,4.1433
2957.00,4.1160
2956.00,4.1761
2955.00,4.2163
2954.00,4.1673
2953.00,4.2125
2952.00,4.2400
2951.00,4.0364
2950.00,3.8639
2949.00,3.8387
2948.00,3.9751
2947.00,4.2052
2946.00,4.2705
2945.00,4.1416
2944.00,3.9998
2943.00,3.9701
2942.00,3.9878
2941.00,4.1226
2940.00,4.5141
2939.00,4.6312
2938.00,4.3451
2937.00,4.1320
2936.00,4.1705
2935.00,4.2442
2934.00,4.1637
2933.00,4.0559
2932.00,3.9573
2931.00,3.8915
2930.00,3.8523
2929.00,3.8653
2928.00,3.9943
2927.00,4.2120
2926.00,4.1539
2925.00,3.9600
2924.00,3.8280
2923.00,3.8354
2922.00,3.9330
2921.00,4.1657
2920.00,4.5259
2919.00,4.3790
2918.00,4.2661
2917.00,4.3750
2916.00,4.6790
2915.00,4.3918
2914.00,4.1075
2913.00,4.0244
2912.00,4.0467
2911.00,4.0488
2910.00,3.9799
2909.00,3.9263
2908.00,4.0698
2907.00,4.4522
2906.00,4.3159
2905.00,4.1254
2904.00,4.0524
2903.00,4.2239
2902.00,4.3424
2901.00,4.1862
2900.00,3.9686
2899.00,3.7956
2898.00,3.7669
2897.00,3.8381
2896.00,3.9346
2895.00,4.0082
2894.00,4.0712
2893.00,4.0993
2892.00,4.1224
2891.00,4.1380
2890.00,4.0782
2889.00,3.9841
2888.00,3.9440
2887.00,4.0260
2886.00,4.1360
2885.00,4.1016
2884.00,3.9716
2883.00,3.8698
2882.00,3.8854
2881.00,4.0035
2880.00,4.0929
2879.00,4.0610
2878.00,3.9699
2877.00,3.9164
2876.00,3.9044
2875.00,3.9443
2874.00,4.0527
2873.00,4.0881
2872.00,4.0092
2871.00,3.9552
2870.00,3.9812
2869.00,4.0505
2868.00,4.1151
2867.00,4.2292
2866.00,4.3224
2865.00,4.2226
2864.00,4.0469
2863.00,3.9339
2862.00,3.9281
2861.00,4.0499
2860.00,4.3218
2859.00,4.6524
2858.00,4.4784
2857.00,4.4522
2856.00,4.6834
2855.00,4.3823
2854.00,4.1101
2853.00,4.0104
2852.00,4.1142
2851.00,4.1467
2850.00,3.9312
2849.00,3.6199
2848.00,3.3134
2847.00,3.0479
2846.00,2.8120
2845.00,2.5978
2844.00,2.4029
2843.00,2.2293
2842.00,2.0778
2841.00,1.9470
2840.00,1.8344
2839.00,1.7367
2838.00,1.6513
2837.00,1.5760
2836.00,1.5091
2835.00,1.4493
2834.00,1.3957
2833.00,1.3475
2832.00,1.3040
2831.00,1.2642
2830.00,1.2278
2829.00,1.1940
2828.00,1.1625
2827.00,1.1328
2826.00,1.1045
2825.00,1.0777
2824.00,1.0521
2823.00,1.0276
2822.00,1.0041
2821.00,0.9815
2820.00,0.9599
2819.00,0.9391
2818.00,0.9190
2817.00,0.8998
2816.00,0.8812
2815.00,0.8635
2814.00,0.8467
2813.00,0.8310
2812.00,0.8162
2811.00,0.8022
2810.00,0.7891
2809.00,0.7768
2808.00,0.7652
2807.00,0.7542
2806.00,0.7438
2805.00,0.7337
2804.00,0.7239
2803.00,0.7143
2802.00,0.7048
2801.00,0.6955
2800.00,0.6864
2799.00,0.6775
2798.00,0.6689
2797.00,0.6606
2796.00,0.6525
2795.00,0.6448
2794.00,0.6375
2793.00,0.6306
2792.00,0.6241
2791.00,0.6179
2790.00,0.6121
2789.00,0.6066
2788.00,0.6014
2787.00,0.5963
2786.00,0.5915
2785.00,0.5867
2784.00,0.5822
2783.00,0.5778
2782.00,0.5735
2781.00,0.5695
2780.00,0.5657
2779.00,0.5621
2778.00,0.5589
2777.00,0.5558
2776.00,0.5529
2775.00,0.5502
2774.00,0.5477
2773.00,0.5454
2772.00,0.5432
2771.00,0.5413
2770.00,0.5394
2769.00,0.5377
2768.00,0.5360
2767.00,0.5344
2766.00,0.5330
2765.00,0.5318
2764.00,0.5307
2763.00,0.5298
2762.00,0.5290
2761.00,0.5283
2760.00,0.5276
2759.00,0.5271
2758.00,0.5267
2757.00,0.5265
2756.00,0.5265
2755.00,0.5266
2754.00,0.5268
2753.00,0.5272
2752.00,0.5277
2751.00,0.5284
2750.00,0.5293
2749.00,0.5305
2748.00,0.5319
2747.00,0.5334
2746.00,0.5350
2745.00,0.5369
2744.00,0.5389
2743.00,0.5412
2742.00,0.5437
2741.00,0.5465
2740.00,0.5493
2739.00,0.5522
2738.00,0.5549
2737.00,0.5575
2736.00,0.5596
2735.00,0.5611
2734.00,0.5619
2733.00,0.5618
2732.00,0.5609
2731.00,0.5591
2730.00,0.5563
2729.00,0.5528
2728.00,0.5486
2727.00,0.5439
2726.00,0.5390
2725.00,0.5342
2724.00,0.5297
2723.00,0.5255
2722.00,0.5217
2721.00,0.5184
2720.00,0.5155
2719.00,0.5130
2718.00,0.5108
2717.00,0.5088
2716.00,0.5069
2715.00,0.5050
2714.00,0.5031
2713.00,0.5013
2712.00,0.4995
2711.00,0.4977
2710.00,0.4961
2709.00,0.4946
2708.00,0.4932
2707.00,0.4921
2706.00,0.4911
2705.00,0.4902
2704.00,0.4894
2703.00,0.4887
2702.00,0.4881
2701.00,0.4876
2700.00,0.4873
2699.00,0.4871
2698.00,0.4869
2697.00,0.4867
2696.00,0.4864
2695.00,0.4861
2694.00,0.4857
2693.00,0.4853
2692.00,0.4850
2691.00,0.4848
2690.00,0.4846
2689.00,0.4844
2688.00,0.4843
2687.00,0.4843
2686.00,0.4843
2685.00,0.4845
2684.00,0.4848
2683.00,0.4851
2682.00,0.4855
2681.00,0.4859
2680.00,0.4862
2679.00,0.4864
2678.00,0.4865
2677.00,0.4865
2676.00,0.4863
2675.00,0.4861
2674.00,0.4857
2673.00,0.4852
2672.00,0.4845
2671.00,0.4836
2670.00,0.4825
