Created as New Dataset,
cm-1,A
4000.00,0.0853
3999.00,0.0846
3998.00,0.0840
3997.00,0.0833
3996.00,0.0827
3995.00,0.0821
3994.00,0.0817
3993.00,0.0816
3992.00,0.0814
3991.00,0.0811
3990.00,0.0804
3989.00,0.0797
3988.00,0.0790
3987.00,0.0785
3986.00,0.0780
3985.00,0.0775
3984.00,0.0771
3983.00,0.0766
3982.00,0.0760
3981.00,0.0753
3980.00,0.0747
3979.00,0.0743
3978.00,0.0740
3977.00,0.0739
3976.00,0.0735
3975.00,0.0729
3974.00,0.0723
3973.00,0.0720
3972.00,0.0718
3971.00,0.0716
3970.00,0.0712
3969.00,0.0707
3968.00,0.0703
3967.00,0.0702
3966.00,0.0703
3965.00,0.0703
3964.00,0.0701
3963.00,0.0697
3962.00,0.0694
3961.00,0.0693
3960.00,0.0692
3959.00,0.0692
3958.00,0.0691
3957.00,0.0690
3956.00,0.0688
3955.00,0.0686
3954.00,0.0685
3953.00,0.0684
3952.00,0.0682
3951.00,0.0680
3950.00,0.0678
3949.00,0.0676
3948.00,0.0675
3947.00,0.0675
3946.00,0.0676
3945.00,0.0675
3944.00,0.0673
3943.00,0.0671
3942.00,0.0671
3941.00,0.0671
3940.00,0.0670
3939.00,0.0668
3938.00,0.0667
3937.00,0.0668
3936.00,0.0670
3935.00,0.0671
3934.00,0.0670
3933.00,0.0669
3932.00,0.0669
3931.00,0.0671
3930.00,0.0672
3929.00,0.0673
3928.00,0.0671
3927.00,0.0669
3926.00,0.0667
3925.00,0.0667
3924.00,0.0668
3923.00,0.0669
3922.00,0.0669
3921.00,0.0668
3920.00,0.0665
3919.00,0.0663
3918.00,0.0661
3917.00,0.0661
3916.00,0.0662
3915.00,0.0662
3914.00,0.0663
3913.00,0.0663
3912.00,0.0662
3911.00,0.0662
3910.00,0.0662
3909.00,0.0662
3908.00,0.0660
3907.00,0.0658
3906.00,0.0655
3905.00,0.0653
3904.00,0.0653
3903.00,0.0654
3902.00,0.0655
3901.00,0.0656
3900.00,0.0657
3899.00,0.0658
3898.00,0.0659
3897.00,0.0657
3896.00,0.0652
3895.00,0.0647
3894.00,0.0643
3893.00,0.0642
3892.00,0.0645
3891.00,0.0649
3890.00,0.0650
3889.00,0.0648
3888.00,0.0643
3887.00,0.0638
3886.00,0.0636
3885.00,0.0639
3884.00,0.0643
3883.00,0.0645
3882.00,0.0643
3881.00,0.0641
3880.00,0.0641
3879.00,0.0642
3878.00,0.0641
3877.00,0.0638
3876.00,0.0633
3875.00,0.0630
3874.00,0.0630
3873.00,0.0631
3872.00,0.0630
3871.00,0.0626
3870.00,0.0622
3869.00,0.0623
3868.00,0.0627
3867.00,0.0630
3866.00,0.0630
3865.00,0.0628
3864.00,0.0625
3863.00,0.0624
3862.00,0.0623
3861.00,0.0621
3860.00,0.0620
3859.00,0.0620
3858.00,0.0620
3857.00,0.0620
3856.00,0.0619
3855.00,0.0615
3854.00,0.0610
3853.00,0.0610
3852.00,0.0613
3851.00,0.0615
3850.00,0.0616
3849.00,0.0615
3848.00,0.0615
3847.00,0.0616
3846.00,0.0616
3845.00,0.0615
3844.00,0.0613
3843.00,0.0610
3842.00,0.0606
3841.00,0.0603
3840.00,0.0602
3839.00,0.0603
3838.00,0.0607
3837.00,0.0611
3836.00,0.0611
3835.00,0.0608
3834.00,0.0605
3833.00,0.0603
3832.00,0.0604
3831.00,0.0606
3830.00,0.0608
3829.00,0.0607
3828.00,0.0605
3827.00,0.0603
3826.00,0.0600
3825.00,0.0598
3824.00,0.0595
3823.00,0.0591
3822.00,0.0589
3821.00,0.0591
3820.00,0.0596
3819.00,0.0599
3818.00,0.0598
3817.00,0.0595
3816.00,0.0591
3815.00,0.0592
3814.00,0.0593
3813.00,0.0591
3812.00,0.0586
3811.00,0.0581
3810.00,0.0578
3809.00,0.0578
3808.00,0.0578
3807.00,0.0577
3806.00,0.0575
3805.00,0.0572
3804.00,0.0570
3803.00,0.0566
3802.00,0.0564
3801.00,0.0564
3800.00,0.0565
3799.00,0.0565
3798.00,0.0561
3797.00,0.0558
3796.00,0.0557
3795.00,0.0558
3794.00,0.0559
3793.00,0.0558
3792.00,0.0555
3791.00,0.0554
3790.00,0.0554
3789.00,0.0554
3788.00,0.0554
3787.00,0.0553
3786.00,0.0552
3785.00,0.0553
3784.00,0.0552
3783.00,0.0550
3782.00,0.0546
3781.00,0.0541
3780.00,0.0537
3779.00,0.0536
3778.00,0.0537
3777.00,0.0539
3776.00,0.0540
3775.00,0.0539
3774.00,0.0537
3773.00,0.0534
3772.00,0.0532
3771.00,0.0529
3770.00,0.0526
3769.00,0.0526
3768.00,0.0526
3767.00,0.0525
3766.00,0.0524
3765.00,0.0523
3764.00,0.0520
3763.00,0.0517
3762.00,0.0514
3761.00,0.0510
3760.00,0.0508
3759.00,0.0507
3758.00,0.0506
3757.00,0.0505
3756.00,0.0502
3755.00,0.0501
3754.00,0.0501
3753.00,0.0501
3752.00,0.0499
3751.00,0.0496
3750.00,0.0493
3749.00,0.0491
3748.00,0.0490
3747.00,0.0490
3746.00,0.0490
3745.00,0.0490
3744.00,0.0492
3743.00,0.0493
3742.00,0.0491
3741.00,0.0487
3740.00,0.0483
3739.00,0.0484
3738.00,0.0487
3737.00,0.0490
3736.00,0.0490
3735.00,0.0486
3734.00,0.0481
3733.00,0.0479
3732.00,0.0479
3731.00,0.0480
3730.00,0.0480
3729.00,0.0479
3728.00,0.0477
3727.00,0.0475
3726.00,0.0475
3725.00,0.0476
3724.00,0.0475
3723.00,0.0472
3722.00,0.0470
3721.00,0.0469
3720.00,0.0469
3719.00,0.0470
3718.00,0.0469
3717.00,0.0468
3716.00,0.0468
3715.00,0.0467
3714.00,0.0466
3713.00,0.0464
3712.00,0.0463
3711.00,0.0463
3710.00,0.0462
3709.00,0.0461
3708.00,0.0461
3707.00,0.0462
3706.00,0.0464
3705.00,0.0465
3704.00,0.0466
3703.00,0.0467
3702.00,0.0467
3701.00,0.0466
3700.00,0.0466
3699.00,0.0464
3698.00,0.0462
3697.00,0.0461
3696.00,0.0459
3695.00,0.0459
3694.00,0.0459
3693.00,0.0458
3692.00,0.0458
3691.00,0.0456
3690.00,0.0455
3689.00,0.0454
3688.00,0.0456
3687.00,0.0458
3686.00,0.0458
3685.00,0.0456
3684.00,0.0453
3683.00,0.0451
3682.00,0.0450
3681.00,0.0451
3680.00,0.0453
3679.00,0.0453
3678.00,0.0453
3677.00,0.0450
3676.00,0.0448
3675.00,0.0449
3674.00,0.0452
3673.00,0.0453
3672.00,0.0453
3671.00,0.0453
3670.00,0.0456
3669.00,0.0462
3668.00,0.0466
3667.00,0.0467
3666.00,0.0466
3665.00,0.0466
3664.00,0.0468
3663.00,0.0472
3662.00,0.0478
3661.00,0.0483
3660.00,0.0489
3659.00,0.0495
3658.00,0.0504
3657.00,0.0518
3656.00,0.0539
3655.00,0.0561
3654.00,0.0578
3653.00,0.0591
3652.00,0.0602
3651.00,0.0617
3650.00,0.0632
3649.00,0.0638
3648.00,0.0631
3647.00,0.0616
3646.00,0.0602
3645.00,0.0590
3644.00,0.0579
3643.00,0.0569
3642.00,0.0558
3641.00,0.0548
3640.00,0.0537
3639.00,0.0525
3638.00,0.0513
3637.00,0.0503
3636.00,0.0495
3635.00,0.0490
3634.00,0.0485
3633.00,0.0479
3632.00,0.0473
3631.00,0.0466
3630.00,0.0461
3629.00,0.0461
3628.00,0.0465
3627.00,0.0467
3626.00,0.0466
3625.00,0.0463
3624.00,0.0462
3623.00,0.0463
3622.00,0.0463
3621.00,0.0461
3620.00,0.0457
3619.00,0.0454
3618.00,0.0452
3617.00,0.0452
3616.00,0.0451
3615.00,0.0451
3614.00,0.0451
3613.00,0.0451
3612.00,0.0448
3611.00,0.0443
3610.00,0.0438
3609.00,0.0435
3608.00,0.0436
3607.00,0.0437
3606.00,0.0435
3605.00,0.0430
3604.00,0.0423
3603.00,0.0416
3602.00,0.0408
3601.00,0.0400
3600.00,0.0389
3599.00,0.0378
3598.00,0.0367
3597.00,0.0358
3596.00,0.0350
3595.00,0.0344
3594.00,0.0338
3593.00,0.0332
3592.00,0.0324
3591.00,0.0317
3590.00,0.0310
3589.00,0.0304
3588.00,0.0300
3587.00,0.0297
3586.00,0.0293
3585.00,0.0290
3584.00,0.0287
3583.00,0.0285
3582.00,0.0284
3581.00,0.0283
3580.00,0.0282
3579.00,0.0281
3578.00,0.0280
3577.00,0.0279
3576.00,0.0279
3575.00,0.0278
3574.00,0.0277
3573.00,0.0275
3572.00,0.0272
3571.00,0.0269
3570.00,0.0266
3569.00,0.0264
3568.00,0.0261
3567.00,0.0259
3566.00,0.0257
3565.00,0.0256
3564.00,0.0256
3563.00,0.0256
3562.00,0.0257
3561.00,0.0257
3560.00,0.0256
3559.00,0.0255
3558.00,0.0253
3557.00,0.0251
3556.00,0.0250
3555.00,0.0249
3554.00,0.0248
3553.00,0.0248
3552.00,0.0248
3551.00,0.0248
3550.00,0.0247
3549.00,0.0245
3548.00,0.0244
3547.00,0.0244
3546.00,0.0244
3545.00,0.0243
3544.00,0.0243
3543.00,0.0243
3542.00,0.0243
3541.00,0.0244
3540.00,0.0244
3539.00,0.0242
3538.00,0.0240
3537.00,0.0239
3536.00,0.0239
3535.00,0.0241
3534.00,0.0243
3533.00,0.0244
3532.00,0.0244
3531.00,0.0244
3530.00,0.0245
3529.00,0.0246
3528.00,0.0248
3527.00,0.0248
3526.00,0.0247
3525.00,0.0246
3524.00,0.0246
3523.00,0.0246
3522.00,0.0247
3521.00,0.0247
3520.00,0.0248
3519.00,0.0249
3518.00,0.0252
3517.00,0.0254
3516.00,0.0256
3515.00,0.0257
3514.00,0.0257
3513.00,0.0256
3512.00,0.0256
3511.00,0.0256
3510.00,0.0257
3509.00,0.0259
3508.00,0.0260
3507.00,0.0261
3506.00,0.0261
3505.00,0.0262
3504.00,0.0264
3503.00,0.0266
3502.00,0.0268
3501.00,0.0269
3500.00,0.0271
3499.00,0.0273
3498.00,0.0274
3497.00,0.0275
3496.00,0.0276
3495.00,0.0277
3494.00,0.0277
3493.00,0.0277
3492.00,0.0276
3491.00,0.0276
3490.00,0.0277
3489.00,0.0279
3488.00,0.0281
3487.00,0.0283
3486.00,0.0284
3485.00,0.0286
3484.00,0.0286
3483.00,0.0287
3482.00,0.0287
3481.00,0.0287
3480.00,0.0287
3479.00,0.0287
3478.00,0.0289
3477.00,0.0292
3476.00,0.0296
3475.00,0.0298
3474.00,0.0299
3473.00,0.0299
3472.00,0.0299
3471.00,0.0300
3470.00,0.0302
3469.00,0.0304
3468.00,0.0306
3467.00,0.0308
3466.00,0.0309
3465.00,0.0311
3464.00,0.0312
3463.00,0.0314
3462.00,0.0316
3461.00,0.0318
3460.00,0.0320
3459.00,0.0321
3458.00,0.0323
3457.00,0.0323
3456.00,0.0324
3455.00,0.0325
3454.00,0.0327
3453.00,0.0329
3452.00,0.0331
3451.00,0.0333
3450.00,0.0335
3449.00,0.0336
3448.00,0.0338
3447.00,0.0340
3446.00,0.0342
3445.00,0.0342
3444.00,0.0340
3443.00,0.0338
3442.00,0.0339
3441.00,0.0341
3440.00,0.0343
3439.00,0.0345
3438.00,0.0346
3437.00,0.0348
3436.00,0.0351
3435.00,0.0353
3434.00,0.0354
3433.00,0.0353
3432.00,0.0353
3431.00,0.0354
3430.00,0.0355
3429.00,0.0355
3428.00,0.0355
3427.00,0.0355
3426.00,0.0356
3425.00,0.0358
3424.00,0.0359
3423.00,0.0359
3422.00,0.0360
3421.00,0.0362
3420.00,0.0364
3419.00,0.0367
3418.00,0.0369
3417.00,0.0370
3416.00,0.0371
3415.00,0.0372
3414.00,0.0373
3413.00,0.0373
3412.00,0.0374
3411.00,0.0375
3410.00,0.0376
3409.00,0.0376
3408.00,0.0376
3407.00,0.0376
3406.00,0.0377
3405.00,0.0378
3404.00,0.0379
3403.00,0.0381
3402.00,0.0383
3401.00,0.0384
3400.00,0.0384
3399.00,0.0386
3398.00,0.0389
3397.00,0.0392
3396.00,0.0395
3395.00,0.0397
3394.00,0.0400
3393.00,0.0401
3392.00,0.0404
3391.00,0.0406
3390.00,0.0409
3389.00,0.0410
3388.00,0.0410
3387.00,0.0409
3386.00,0.0410
3385.00,0.0412
3384.00,0.0414
3383.00,0.0415
3382.00,0.0416
3381.00,0.0416
3380.00,0.0418
3379.00,0.0420
3378.00,0.0422
3377.00,0.0424
3376.00,0.0426
3375.00,0.0426
3374.00,0.0425
3373.00,0.0425
3372.00,0.0426
3371.00,0.0427
3370.00,0.0428
3369.00,0.0428
3368.00,0.0428
3367.00,0.0427
3366.00,0.0427
3365.00,0.0428
3364.00,0.0428
3363.00,0.0428
3362.00,0.0427
3361.00,0.0426
3360.00,0.0426
3359.00,0.0427
3358.00,0.0428
3357.00,0.0429
3356.00,0.0430
3355.00,0.0431
3354.00,0.0430
3353.00,0.0431
3352.00,0.0432
3351.00,0.0434
3350.00,0.0436
3349.00,0.0438
3348.00,0.0438
3347.00,0.0436
3346.00,0.0434
3345.00,0.0433
3344.00,0.0434
3343.00,0.0435
3342.00,0.0435
3341.00,0.0435
3340.00,0.0434
3339.00,0.0433
3338.00,0.0431
3337.00,0.0430
3336.00,0.0430
3335.00,0.0431
3334.00,0.0431
3333.00,0.0429
3332.00,0.0427
3331.00,0.0425
3330.00,0.0425
3329.00,0.0425
3328.00,0.0424
3327.00,0.0423
3326.00,0.0423
3325.00,0.0423
3324.00,0.0423
3323.00,0.0423
3322.00,0.0422
3321.00,0.0422
3320.00,0.0421
3319.00,0.0421
3318.00,0.0421
3317.00,0.0420
3316.00,0.0420
3315.00,0.0420
3314.00,0.0421
3313.00,0.0421
3312.00,0.0421
3311.00,0.0420
3310.00,0.0419
3309.00,0.0419
3308.00,0.0419
3307.00,0.0419
3306.00,0.0419
3305.00,0.0420
3304.00,0.0420
3303.00,0.0419
3302.00,0.0417
3301.00,0.0415
3300.00,0.0414
3299.00,0.0414
3298.00,0.0414
3297.00,0.0414
3296.00,0.0414
3295.00,0.0413
3294.00,0.0412
3293.00,0.0412
3292.00,0.0411
3291.00,0.0411
3290.00,0.0411
3289.00,0.0412
3288.00,0.0413
3287.00,0.0414
3286.00,0.0415
3285.00,0.0417
3284.00,0.0418
3283.00,0.0419
3282.00,0.0420
3281.00,0.0421
3280.00,0.0423
3279.00,0.0426
3278.00,0.0429
3277.00,0.0431
3276.00,0.0431
3275.00,0.0430
3274.00,0.0429
3273.00,0.0429
3272.00,0.0430
3271.00,0.0433
3270.00,0.0435
3269.00,0.0437
3268.00,0.0438
3267.00,0.0438
3266.00,0.0439
3265.00,0.0440
3264.00,0.0442
3263.00,0.0445
3262.00,0.0446
3261.00,0.0448
3260.00,0.0450
3259.00,0.0452
3258.00,0.0455
3257.00,0.0457
3256.00,0.0459
3255.00,0.0460
3254.00,0.0460
3253.00,0.0462
3252.00,0.0467
3251.00,0.0472
3250.00,0.0477
3249.00,0.0482
3248.00,0.0485
3247.00,0.0487
3246.00,0.0490
3245.00,0.0494
3244.00,0.0499
3243.00,0.0504
3242.00,0.0509
3241.00,0.0513
3240.00,0.0517
3239.00,0.0522
3238.00,0.0526
3237.00,0.0530
3236.00,0.0534
3235.00,0.0538
3234.00,0.0542
3233.00,0.0547
3232.00,0.0552
3231.00,0.0558
3230.00,0.0562
3229.00,0.0566
3228.00,0.0570
3227.00,0.0576
3226.00,0.0583
3225.00,0.0590
3224.00,0.0596
3223.00,0.0603
3222.00,0.0611
3221.00,0.0620
3220.00,0.0629
3219.00,0.0639
3218.00,0.0648
3217.00,0.0658
3216.00,0.0669
3215.00,0.0681
3214.00,0.0692
3213.00,0.0703
3212.00,0.0714
3211.00,0.0725
3210.00,0.0736
3209.00,0.0749
3208.00,0.0761
3207.00,0.0773
3206.00,0.0784
3205.00,0.0795
3204.00,0.0807
3203.00,0.0820
3202.00,0.0834
3201.00,0.0847
3200.00,0.0858
3199.00,0.0867
3198.00,0.0876
3197.00,0.0886
3196.00,0.0895
3195.00,0.0904
3194.00,0.0911
3193.00,0.0919
3192.00,0.0926
3191.00,0.0933
3190.00,0.0940
3189.00,0.0946
3188.00,0.0954
3187.00,0.0963
3186.00,0.0970
3185.00,0.0976
3184.00,0.0981
3183.00,0.0986
3182.00,0.0991
3181.00,0.0996
3180.00,0.1002
3179.00,0.1007
3178.00,0.1013
3177.00,0.1017
3176.00,0.1021
3175.00,0.1025
3174.00,0.1028
3173.00,0.1030
3172.00,0.1032
3171.00,0.1034
3170.00,0.1036
3169.00,0.1038
3168.00,0.1040
3167.00,0.1042
3166.00,0.1042
3165.00,0.1043
3164.00,0.1043
3163.00,0.1044
3162.00,0.1044
3161.00,0.1043
3160.00,0.1042
3159.00,0.1041
3158.00,0.1041
3157.00,0.1040
3156.00,0.1040
3155.00,0.1040
3154.00,0.1040
3153.00,0.1040
3152.00,0.1040
3151.00,0.1040
3150.00,0.1040
3149.00,0.1041
3148.00,0.1043
3147.00,0.1044
3146.00,0.1044
3145.00,0.1044
3144.00,0.1046
3143.00,0.1048
3142.00,0.1050
3141.00,0.1051
3140.00,0.1050
3139.00,0.1049
3138.00,0.1049
3137.00,0.1051
3136.00,0.1055
3135.00,0.1059
3134.00,0.1063
3133.00,0.1063
3132.00,0.1062
3131.00,0.1062
3130.00,0.1062
3129.00,0.1063
3128.00,0.1063
3127.00,0.1064
3126.00,0.1064
3125.00,0.1064
3124.00,0.1065
3123.00,0.1066
3122.00,0.1069
3121.00,0.1072
3120.00,0.1075
3119.00,0.1078
3118.00,0.1082
3117.00,0.1087
3116.00,0.1091
3115.00,0.1095
3114.00,0.1098
3113.00,0.1103
3112.00,0.1110
3111.00,0.1117
3110.00,0.1125
3109.00,0.1132
3108.00,0.1138
3107.00,0.1144
3106.00,0.1150
3105.00,0.1156
3104.00,0.1163
3103.00,0.1173
3102.00,0.1184
3101.00,0.1196
3100.00,0.1207
3099.00,0.1217
3098.00,0.1226
3097.00,0.1235
3096.00,0.1244
3095.00,0.1255
3094.00,0.1267
3093.00,0.1279
3092.00,0.1291
3091.00,0.1301
3090.00,0.1314
3089.00,0.1328
3088.00,0.1345
3087.00,0.1362
3086.00,0.1378
3085.00,0.1394
3084.00,0.1409
3083.00,0.1425
3082.00,0.1441
3081.00,0.1458
3080.00,0.1475
3079.00,0.1489
3078.00,0.1503
3077.00,0.1518
3076.00,0.1535
3075.00,0.1555
3074.00,0.1576
3073.00,0.1598
3072.00,0.1619
3071.00,0.1639
3070.00,0.1659
3069.00,0.1680
3068.00,0.1701
3067.00,0.1723
3066.00,0.1745
3065.00,0.1767
3064.00,0.1790
3063.00,0.1813
3062.00,0.1837
3061.00,0.1861
3060.00,0.1886
3059.00,0.1910
3058.00,0.1935
3057.00,0.1961
3056.00,0.1990
3055.00,0.2020
3054.00,0.2049
3053.00,0.2079
3052.00,0.2108
3051.00,0.2139
3050.00,0.2172
3049.00,0.2206
3048.00,0.2240
3047.00,0.2275
3046.00,0.2312
3045.00,0.2349
3044.00,0.2387
3043.00,0.2425
3042.00,0.2464
3041.00,0.2504
3040.00,0.2546
3039.00,0.2588
3038.00,0.2630
3037.00,0.2672
3036.00,0.2716
3035.00,0.2761
3034.00,0.2810
3033.00,0.2861
3032.00,0.2915
3031.00,0.2970
3030.00,0.3027
3029.00,0.3086
3028.00,0.3147
3027.00,0.3210
3026.00,0.3274
3025.00,0.3341
3024.00,0.3413
3023.00,0.3488
3022.00,0.3567
3021.00,0.3647
3020.00,0.3729
3019.00,0.3813
3018.00,0.3900
3017.00,0.3989
3016.00,0.4082
3015.00,0.4180
3014.00,0.4283
3013.00,0.4392
3012.00,0.4507
3011.00,0.4629
3010.00,0.4759
3009.00,0.4894
3008.00,0.5032
3007.00,0.5177
3006.00,0.5333
3005.00,0.5505
3004.00,0.5691
3003.00,0.5884
3002.00,0.6084
3001.00,0.6292
3000.00,0.6512
2999.00,0.6748
2998.00,0.6999
2997.00,0.7269
2996.00,0.7562
2995.00,0.7881
2994.00,0.8230
2993.00,0.8608
2992.00,0.9019
2991.00,0.9470
2990.00,0.9971
2989.00,1.0527
2988.00,1.1138
2987.00,1.1811
2986.00,1.2557
2985.00,1.3386
2984.00,1.4309
2983.00,1.5337
2982.00,1.6492
2981.00,1.7798
2980.00,1.9281
2979.00,2.0976
2978.00,2.2913
2977.00,2.5050
2976.00,2.7307
2975.00,2.9945
2974.00,3.4392
2973.00,7.7282
2972.00,7.7278
2971.00,4.0700
2970.00,3.5867
2969.00,3.5166
2968.00,3.6170
2967.00,3.5833
2966.00,3.3185
2965.00,3.1263
2964.00,3.1462
2963.00,3.4638
2962.00,3.7724
2961.00,3.5268
2960.00,3.3432
2959.00,3.4677
2958.00,3.6443
2957.00,3.4493
2956.00,3.2581
2955.00,3.2484
2954.00,3.4229
2953.00,3.8853
2952.00,7.7190
2951.00,3.9614
2950.00,3.5984
2949.00,3.5127
2948.00,3.5700
2947.00,3.4311
2946.00,3.2556
2945.00,3.2416
2944.00,3.4108
2943.00,3.8410
2942.00,4.2444
2941.00,4.0027
2940.00,3.9064
2939.00,3.7733
2938.00,3.5736
2937.00,3.3961
2936.00,3.3579
2935.00,3.3788
2934.00,3.3611
2933.00,3.2843
2932.00,3.1836
2931.00,3.1477
2930.00,3.2402
2929.00,3.4392
2928.00,3.5992
2927.00,3.5387
2926.00,3.6534
2925.00,3.8600
2924.00,3.3250
2923.00,2.9663
2922.00,2.8113
2921.00,2.8533
2920.00,2.9923
2919.00,3.2393
2918.00,3.5665
2917.00,3.8227
2916.00,3.7776
2915.00,3.6749
2914.00,3.5794
2913.00,3.3692
2912.00,3.2089
2911.00,3.2026
2910.00,3.3404
2909.00,3.4848
2908.00,3.4403
2907.00,3.4265
2906.00,3.6346
2905.00,3.6985
2904.00,3.5305
2903.00,3.4537
2902.00,3.7102
2901.00,4.2817
2900.00,3.6881
2899.00,3.3346
2898.00,3.2550
2897.00,3.5041
2896.00,4.4888
2895.00,7.7263
2894.00,4.0009
2893.00,3.4230
2892.00,3.1946
2891.00,3.1622
2890.00,3.2929
2889.00,3.5328
2888.00,4.0175
2887.00,3.8087
2886.00,3.4055
2885.00,3.1823
2884.00,3.2044
2883.00,3.4881
2882.00,4.3632
2881.00,4.0090
2880.00,3.4405
2879.00,3.2436
2878.00,3.3757
2877.00,3.8067
2876.00,4.5955
2875.00,3.8290
2874.00,3.6132
2873.00,3.8238
2872.00,3.7136
2871.00,3.3400
2870.00,3.1516
2869.00,3.1965
2868.00,3.3293
2867.00,3.5065
2866.00,3.7181
2865.00,3.8527
2864.00,3.6266
2863.00,3.3732
2862.00,3.2865
2861.00,3.3466
2860.00,3.5218
2859.00,3.6260
2858.00,3.5638
2857.00,3.5015
2856.00,3.5143
2855.00,3.5951
2854.00,3.5817
2853.00,3.4004
2852.00,3.2267
2851.00,3.1634
2850.00,3.2069
2849.00,3.2731
2848.00,3.3380
2847.00,3.4880
2846.00,3.6003
2845.00,3.5013
2844.00,3.3474
2843.00,3.4932
2842.00,4.4736
2841.00,4.1086
2840.00,3.5937
2839.00,3.5161
2838.00,3.6137
2837.00,3.0683
2836.00,2.6517
2835.00,2.3921
2834.00,2.2028
2833.00,2.0351
2832.00,1.8839
2831.00,1.7544
2830.00,1.6450
2829.00,1.5492
2828.00,1.4625
2827.00,1.3843
2826.00,1.3150
2825.00,1.2538
2824.00,1.1985
2823.00,1.1478
2822.00,1.1013
2821.00,1.0592
2820.00,1.0210
2819.00,0.9861
2818.00,0.9532
2817.00,0.9218
2816.00,0.8921
2815.00,0.8644
2814.00,0.8385
2813.00,0.8135
2812.00,0.7889
2811.00,0.7652
2810.00,0.7428
2809.00,0.7212
2808.00,0.7003
2807.00,0.6801
2806.00,0.6611
2805.00,0.6433
2804.00,0.6265
2803.00,0.6102
2802.00,0.5946
2801.00,0.5796
2800.00,0.5651
2799.00,0.5514
2798.00,0.5384
2797.00,0.5259
2796.00,0.5137
2795.00,0.5016
2794.00,0.4898
2793.00,0.4784
2792.00,0.4670
2791.00,0.4557
2790.00,0.4445
2789.00,0.4337
2788.00,0.4232
2787.00,0.4128
2786.00,0.4026
2785.00,0.3926
2784.00,0.3831
2783.00,0.3740
2782.00,0.3650
2781.00,0.3561
2780.00,0.3476
2779.00,0.3395
2778.00,0.3320
2777.00,0.3249
2776.00,0.3180
2775.00,0.3114
2774.00,0.3052
2773.00,0.2996
2772.00,0.2947
2771.00,0.2903
2770.00,0.2864
2769.00,0.2826
2768.00,0.2791
2767.00,0.2761
2766.00,0.2733
2765.00,0.2709
2764.00,0.2688
2763.00,0.2673
2762.00,0.2662
2761.00,0.2653
2760.00,0.2642
2759.00,0.2630
2758.00,0.2620
2757.00,0.2610
2756.00,0.2602
2755.00,0.2594
2754.00,0.2587
2753.00,0.2582
2752.00,0.2580
2751.00,0.2579
2750.00,0.2579
2749.00,0.2582
2748.00,0.2589
2747.00,0.2599
2746.00,0.2611
2745.00,0.2624
2744.00,0.2639
2743.00,0.2658
2742.00,0.2681
2741.00,0.2708
2740.00,0.2737
2739.00,0.2769
2738.00,0.2806
2737.00,0.2846
2736.00,0.2892
2735.00,0.2943
2734.00,0.2997
2733.00,0.3052
2732.00,0.3102
2731.00,0.3145
2730.00,0.3180
2729.00,0.3204
2728.00,0.3217
2727.00,0.3218
2726.00,0.3212
2725.00,0.3200
2724.00,0.3183
2723.00,0.3161
2722.00,0.3137
2721.00,0.3113
2720.00,0.3085
2719.00,0.3052
2718.00,0.3012
2717.00,0.2969
2716.00,0.2925
2715.00,0.2881
2714.00,0.2834
2713.00,0.2786
2712.00,0.2739
2711.00,0.2698
2710.00,0.2662
2709.00,0.2632
2708.00,0.2606
2707.00,0.2585
2706.00,0.2567
2705.00,0.2552
2704.00,0.2541
2703.00,0.2535
2702.00,0.2532
2701.00,0.2532
2700.00,0.2534
2699.00,0.2538
2698.00,0.2544
2697.00,0.2552
2696.00,0.2561
2695.00,0.2571
2694.00,0.2583
2693.00,0.2596
2692.00,0.2609
2691.00,0.2622
2690.00,0.2635
2689.00,0.2650
2688.00,0.2664
2687.00,0.2674
2686.00,0.2681
2685.00,0.2685
2684.00,0.2690
2683.00,0.2694
2682.00,0.2695
2681.00,0.2695
2680.00,0.2695
2679.00,0.2694
2678.00,0.2694
2677.00,0.2696
2676.00,0.2698
2675.00,0.2700
2674.00,0.2699
2673.00,0.2698
2672.00,0.2695
2671.00,0.2691
2670.00,0.2683
