Created as New Dataset,
cm-1,A
4000.00,0.6143
3999.00,0.6137
3998.00,0.6129
3997.00,0.6121
3996.00,0.6113
3995.00,0.6105
3994.00,0.6096
3993.00,0.6087
3992.00,0.6078
3991.00,0.6068
3990.00,0.6058
3989.00,0.6049
3988.00,0.6039
3987.00,0.6029
3986.00,0.6019
3985.00,0.6009
3984.00,0.5999
3983.00,0.5990
3982.00,0.5980
3981.00,0.5971
3980.00,0.5961
3979.00,0.5951
3978.00,0.5940
3977.00,0.5930
3976.00,0.5921
3975.00,0.5913
3974.00,0.5906
3973.00,0.5898
3972.00,0.5890
3971.00,0.5883
3970.00,0.5875
3969.00,0.5869
3968.00,0.5863
3967.00,0.5858
3966.00,0.5854
3965.00,0.5848
3964.00,0.5843
3963.00,0.5838
3962.00,0.5833
3961.00,0.5829
3960.00,0.5824
3959.00,0.5818
3958.00,0.5814
3957.00,0.5810
3956.00,0.5807
3955.00,0.5805
3954.00,0.5802
3953.00,0.5800
3952.00,0.5797
3951.00,0.5793
3950.00,0.5789
3949.00,0.5785
3948.00,0.5783
3947.00,0.5782
3946.00,0.5779
3945.00,0.5775
3944.00,0.5771
3943.00,0.5770
3942.00,0.5770
3941.00,0.5769
3940.00,0.5767
3939.00,0.5765
3938.00,0.5764
3937.00,0.5765
3936.00,0.5764
3935.00,0.5761
3934.00,0.5757
3933.00,0.5754
3932.00,0.5751
3931.00,0.5747
3930.00,0.5745
3929.00,0.5743
3928.00,0.5740
3927.00,0.5736
3926.00,0.5733
3925.00,0.5732
3924.00,0.5730
3923.00,0.5726
3922.00,0.5722
3921.00,0.5719
3920.00,0.5717
3919.00,0.5714
3918.00,0.5711
3917.00,0.5709
3916.00,0.5708
3915.00,0.5706
3914.00,0.5704
3913.00,0.5701
3912.00,0.5698
3911.00,0.5696
3910.00,0.5694
3909.00,0.5692
3908.00,0.5688
3907.00,0.5680
3906.00,0.5671
3905.00,0.5665
3904.00,0.5661
3903.00,0.5657
3902.00,0.5649
3901.00,0.5642
3900.00,0.5640
3899.00,0.5642
3898.00,0.5645
3897.00,0.5647
3896.00,0.5648
3895.00,0.5648
3894.00,0.5644
3893.00,0.5639
3892.00,0.5636
3891.00,0.5637
3890.00,0.5639
3889.00,0.5633
3888.00,0.5621
3887.00,0.5613
3886.00,0.5615
3885.00,0.5621
3884.00,0.5620
3883.00,0.5611
3882.00,0.5600
3881.00,0.5597
3880.00,0.5601
3879.00,0.5605
3878.00,0.5601
3877.00,0.5590
3876.00,0.5581
3875.00,0.5582
3874.00,0.5588
3873.00,0.5586
3872.00,0.5571
3871.00,0.5559
3870.00,0.5558
3869.00,0.5562
3868.00,0.5559
3867.00,0.5551
3866.00,0.5546
3865.00,0.5549
3864.00,0.5552
3863.00,0.5551
3862.00,0.5544
3861.00,0.5535
3860.00,0.5529
3859.00,0.5527
3858.00,0.5527
3857.00,0.5519
3856.00,0.5505
3855.00,0.5496
3854.00,0.5496
3853.00,0.5495
3852.00,0.5491
3851.00,0.5486
3850.00,0.5487
3849.00,0.5493
3848.00,0.5501
3847.00,0.5506
3846.00,0.5506
3845.00,0.5502
3844.00,0.5498
3843.00,0.5494
3842.00,0.5488
3841.00,0.5478
3840.00,0.5468
3839.00,0.5460
3838.00,0.5458
3837.00,0.5459
3836.00,0.5460
3835.00,0.5462
3834.00,0.5462
3833.00,0.5463
3832.00,0.5468
3831.00,0.5473
3830.00,0.5474
3829.00,0.5469
3828.00,0.5461
3827.00,0.5458
3826.00,0.5460
3825.00,0.5460
3824.00,0.5449
3823.00,0.5433
3822.00,0.5426
3821.00,0.5430
3820.00,0.5434
3819.00,0.5427
3818.00,0.5415
3817.00,0.5410
3816.00,0.5417
3815.00,0.5423
3814.00,0.5420
3813.00,0.5412
3812.00,0.5409
3811.00,0.5409
3810.00,0.5406
3809.00,0.5394
3808.00,0.5382
3807.00,0.5377
3806.00,0.5376
3805.00,0.5369
3804.00,0.5352
3803.00,0.5337
3802.00,0.5336
3801.00,0.5342
3800.00,0.5343
3799.00,0.5337
3798.00,0.5332
3797.00,0.5334
3796.00,0.5342
3795.00,0.5346
3794.00,0.5345
3793.00,0.5341
3792.00,0.5339
3791.00,0.5338
3790.00,0.5338
3789.00,0.5336
3788.00,0.5331
3787.00,0.5324
3786.00,0.5317
3785.00,0.5311
3784.00,0.5307
3783.00,0.5301
3782.00,0.5294
3781.00,0.5287
3780.00,0.5284
3779.00,0.5283
3778.00,0.5280
3777.00,0.5272
3776.00,0.5264
3775.00,0.5260
3774.00,0.5258
3773.00,0.5253
3772.00,0.5246
3771.00,0.5242
3770.00,0.5241
3769.00,0.5238
3768.00,0.5231
3767.00,0.5220
3766.00,0.5214
3765.00,0.5213
3764.00,0.5213
3763.00,0.5209
3762.00,0.5204
3761.00,0.5199
3760.00,0.5195
3759.00,0.5189
3758.00,0.5180
3757.00,0.5172
3756.00,0.5163
3755.00,0.5152
3754.00,0.5143
3753.00,0.5137
3752.00,0.5129
3751.00,0.5118
3750.00,0.5110
3749.00,0.5112
3748.00,0.5115
3747.00,0.5108
3746.00,0.5101
3745.00,0.5108
3744.00,0.5120
3743.00,0.5124
3742.00,0.5121
3741.00,0.5120
3740.00,0.5124
3739.00,0.5127
3738.00,0.5127
3737.00,0.5127
3736.00,0.5129
3735.00,0.5128
3734.00,0.5124
3733.00,0.5120
3732.00,0.5124
3731.00,0.5133
3730.00,0.5140
3729.00,0.5142
3728.00,0.5143
3727.00,0.5145
3726.00,0.5147
3725.00,0.5145
3724.00,0.5141
3723.00,0.5138
3722.00,0.5139
3721.00,0.5141
3720.00,0.5140
3719.00,0.5139
3718.00,0.5138
3717.00,0.5139
3716.00,0.5138
3715.00,0.5134
3714.00,0.5131
3713.00,0.5133
3712.00,0.5136
3711.00,0.5139
3710.00,0.5139
3709.00,0.5140
3708.00,0.5145
3707.00,0.5154
3706.00,0.5164
3705.00,0.5173
3704.00,0.5181
3703.00,0.5190
3702.00,0.5200
3701.00,0.5209
3700.00,0.5217
3699.00,0.5222
3698.00,0.5228
3697.00,0.5238
3696.00,0.5248
3695.00,0.5256
3694.00,0.5263
3693.00,0.5273
3692.00,0.5288
3691.00,0.5305
3690.00,0.5323
3689.00,0.5346
3688.00,0.5373
3687.00,0.5400
3686.00,0.5427
3685.00,0.5456
3684.00,0.5488
3683.00,0.5520
3682.00,0.5549
3681.00,0.5579
3680.00,0.5613
3679.00,0.5643
3678.00,0.5664
3677.00,0.5692
3676.00,0.5739
3675.00,0.5795
3674.00,0.5844
3673.00,0.5881
3672.00,0.5919
3671.00,0.5976
3670.00,0.6049
3669.00,0.6122
3668.00,0.6186
3667.00,0.6244
3666.00,0.6304
3665.00,0.6367
3664.00,0.6433
3663.00,0.6498
3662.00,0.6563
3661.00,0.6628
3660.00,0.6693
3659.00,0.6755
3658.00,0.6822
3657.00,0.6904
3656.00,0.7001
3655.00,0.7100
3654.00,0.7193
3653.00,0.7292
3652.00,0.7421
3651.00,0.7608
3650.00,0.7862
3649.00,0.8174
3648.00,0.8518
3647.00,0.8852
3646.00,0.9140
3645.00,0.9365
3644.00,0.9526
3643.00,0.9624
3642.00,0.9660
3641.00,0.9639
3640.00,0.9571
3639.00,0.9474
3638.00,0.9366
3637.00,0.9260
3636.00,0.9165
3635.00,0.9086
3634.00,0.9031
3633.00,0.8994
3632.00,0.8965
3631.00,0.8941
3630.00,0.8937
3629.00,0.8959
3628.00,0.8993
3627.00,0.9026
3626.00,0.9055
3625.00,0.9087
3624.00,0.9123
3623.00,0.9158
3622.00,0.9191
3621.00,0.9224
3620.00,0.9264
3619.00,0.9309
3618.00,0.9355
3617.00,0.9396
3616.00,0.9431
3615.00,0.9463
3614.00,0.9500
3613.00,0.9542
3612.00,0.9583
3611.00,0.9619
3610.00,0.9654
3609.00,0.9695
3608.00,0.9739
3607.00,0.9779
3606.00,0.9812
3605.00,0.9840
3604.00,0.9866
3603.00,0.9890
3602.00,0.9913
3601.00,0.9935
3600.00,0.9955
3599.00,0.9968
3598.00,0.9977
3597.00,0.9983
3596.00,0.9987
3595.00,0.9988
3594.00,0.9988
3593.00,0.9989
3592.00,0.9989
3591.00,0.9985
3590.00,0.9980
3589.00,0.9978
3588.00,0.9981
3587.00,0.9987
3586.00,0.9991
3585.00,0.9995
3584.00,0.9999
3583.00,1.0001
3582.00,1.0003
3581.00,1.0004
3580.00,1.0003
3579.00,1.0001
3578.00,0.9999
3577.00,0.9997
3576.00,0.9996
3575.00,0.9993
3574.00,0.9990
3573.00,0.9987
3572.00,0.9982
3571.00,0.9973
3570.00,0.9961
3569.00,0.9951
3568.00,0.9945
3567.00,0.9944
3566.00,0.9945
3565.00,0.9944
3564.00,0.9941
3563.00,0.9936
3562.00,0.9931
3561.00,0.9929
3560.00,0.9927
3559.00,0.9924
3558.00,0.9920
3557.00,0.9917
3556.00,0.9914
3555.00,0.9910
3554.00,0.9906
3553.00,0.9901
3552.00,0.9897
3551.00,0.9892
3550.00,0.9885
3549.00,0.9877
3548.00,0.9870
3547.00,0.9864
3546.00,0.9860
3545.00,0.9857
3544.00,0.9854
3543.00,0.9851
3542.00,0.9848
3541.00,0.9846
3540.00,0.9845
3539.00,0.9843
3538.00,0.9841
3537.00,0.9839
3536.00,0.9837
3535.00,0.9834
3534.00,0.9831
3533.00,0.9828
3532.00,0.9826
3531.00,0.9824
3530.00,0.9822
3529.00,0.9822
3528.00,0.9823
3527.00,0.9825
3526.00,0.9825
3525.00,0.9826
3524.00,0.9827
3523.00,0.9830
3522.00,0.9832
3521.00,0.9836
3520.00,0.9839
3519.00,0.9842
3518.00,0.9847
3517.00,0.9852
3516.00,0.9856
3515.00,0.9860
3514.00,0.9863
3513.00,0.9867
3512.00,0.9870
3511.00,0.9873
3510.00,0.9875
3509.00,0.9879
3508.00,0.9881
3507.00,0.9884
3506.00,0.9887
3505.00,0.9892
3504.00,0.9898
3503.00,0.9904
3502.00,0.9908
3501.00,0.9914
3500.00,0.9921
3499.00,0.9928
3498.00,0.9934
3497.00,0.9940
3496.00,0.9945
3495.00,0.9951
3494.00,0.9957
3493.00,0.9965
3492.00,0.9973
3491.00,0.9981
3490.00,0.9987
3489.00,0.9992
3488.00,0.9995
3487.00,0.9999
3486.00,1.0002
3485.00,1.0006
3484.00,1.0009
3483.00,1.0011
3482.00,1.0011
3481.00,1.0013
3480.00,1.0015
3479.00,1.0018
3478.00,1.0020
3477.00,1.0021
3476.00,1.0021
3475.00,1.0020
3474.00,1.0021
3473.00,1.0024
3472.00,1.0026
3471.00,1.0025
3470.00,1.0024
3469.00,1.0023
3468.00,1.0023
3467.00,1.0026
3466.00,1.0030
3465.00,1.0033
3464.00,1.0035
3463.00,1.0034
3462.00,1.0033
3461.00,1.0033
3460.00,1.0035
3459.00,1.0036
3458.00,1.0037
3457.00,1.0038
3456.00,1.0039
3455.00,1.0040
3454.00,1.0041
3453.00,1.0042
3452.00,1.0043
3451.00,1.0045
3450.00,1.0048
3449.00,1.0053
3448.00,1.0059
3447.00,1.0066
3446.00,1.0074
3445.00,1.0083
3444.00,1.0092
3443.00,1.0101
3442.00,1.0110
3441.00,1.0119
3440.00,1.0128
3439.00,1.0137
3438.00,1.0144
3437.00,1.0150
3436.00,1.0155
3435.00,1.0157
3434.00,1.0157
3433.00,1.0157
3432.00,1.0155
3431.00,1.0151
3430.00,1.0146
3429.00,1.0142
3428.00,1.0137
3427.00,1.0131
3426.00,1.0126
3425.00,1.0121
3424.00,1.0117
3423.00,1.0113
3422.00,1.0109
3421.00,1.0106
3420.00,1.0103
3419.00,1.0099
3418.00,1.0094
3417.00,1.0090
3416.00,1.0088
3415.00,1.0086
3414.00,1.0085
3413.00,1.0084
3412.00,1.0081
3411.00,1.0078
3410.00,1.0076
3409.00,1.0075
3408.00,1.0075
3407.00,1.0074
3406.00,1.0072
3405.00,1.0071
3404.00,1.0069
3403.00,1.0065
3402.00,1.0062
3401.00,1.0059
3400.00,1.0058
3399.00,1.0056
3398.00,1.0054
3397.00,1.0052
3396.00,1.0049
3395.00,1.0045
3394.00,1.0040
3393.00,1.0034
3392.00,1.0028
3391.00,1.0023
3390.00,1.0018
3389.00,1.0014
3388.00,1.0010
3387.00,1.0005
3386.00,1.0000
3385.00,0.9995
3384.00,0.9990
3383.00,0.9985
3382.00,0.9981
3381.00,0.9976
3380.00,0.9971
3379.00,0.9965
3378.00,0.9958
3377.00,0.9952
3376.00,0.9945
3375.00,0.9938
3374.00,0.9932
3373.00,0.9928
3372.00,0.9924
3371.00,0.9919
3370.00,0.9913
3369.00,0.9907
3368.00,0.9900
3367.00,0.9894
3366.00,0.9888
3365.00,0.9882
3364.00,0.9877
3363.00,0.9871
3362.00,0.9864
3361.00,0.9858
3360.00,0.9851
3359.00,0.9843
3358.00,0.9835
3357.00,0.9827
3356.00,0.9819
3355.00,0.9813
3354.00,0.9808
3353.00,0.9803
3352.00,0.9797
3351.00,0.9790
3350.00,0.9782
3349.00,0.9774
3348.00,0.9765
3347.00,0.9756
3346.00,0.9747
3345.00,0.9739
3344.00,0.9732
3343.00,0.9724
3342.00,0.9715
3341.00,0.9704
3340.00,0.9691
3339.00,0.9678
3338.00,0.9665
3337.00,0.9655
3336.00,0.9644
3335.00,0.9633
3334.00,0.9620
3333.00,0.9605
3332.00,0.9590
3331.00,0.9574
3330.00,0.9557
3329.00,0.9542
3328.00,0.9527
3327.00,0.9514
3326.00,0.9501
3325.00,0.9487
3324.00,0.9471
3323.00,0.9453
3322.00,0.9435
3321.00,0.9418
3320.00,0.9401
3319.00,0.9385
3318.00,0.9369
3317.00,0.9354
3316.00,0.9337
3315.00,0.9319
3314.00,0.9302
3313.00,0.9286
3312.00,0.9270
3311.00,0.9254
3310.00,0.9237
3309.00,0.9221
3308.00,0.9205
3307.00,0.9189
3306.00,0.9173
3305.00,0.9157
3304.00,0.9143
3303.00,0.9129
3302.00,0.9116
3301.00,0.9103
3300.00,0.9089
3299.00,0.9075
3298.00,0.9060
3297.00,0.9047
3296.00,0.9034
3295.00,0.9022
3294.00,0.9010
3293.00,0.8999
3292.00,0.8988
3291.00,0.8977
3290.00,0.8966
3289.00,0.8955
3288.00,0.8945
3287.00,0.8935
3286.00,0.8926
3285.00,0.8917
3284.00,0.8908
3283.00,0.8899
3282.00,0.8890
3281.00,0.8881
3280.00,0.8872
3279.00,0.8863
3278.00,0.8855
3277.00,0.8849
3276.00,0.8843
3275.00,0.8838
3274.00,0.8832
3273.00,0.8825
3272.00,0.8818
3271.00,0.8812
3270.00,0.8807
3269.00,0.8804
3268.00,0.8801
3267.00,0.8797
3266.00,0.8791
3265.00,0.8784
3264.00,0.8777
3263.00,0.8772
3262.00,0.8768
3261.00,0.8766
3260.00,0.8765
3259.00,0.8763
3258.00,0.8760
3257.00,0.8757
3256.00,0.8753
3255.00,0.8750
3254.00,0.8747
3253.00,0.8745
3252.00,0.8744
3251.00,0.8741
3250.00,0.8738
3249.00,0.8736
3248.00,0.8734
3247.00,0.8734
3246.00,0.8735
3245.00,0.8736
3244.00,0.8736
3243.00,0.8736
3242.00,0.8735
3241.00,0.8734
3240.00,0.8735
3239.00,0.8736
3238.00,0.8736
3237.00,0.8737
3236.00,0.8738
3235.00,0.8739
3234.00,0.8741
3233.00,0.8743
3232.00,0.8745
3231.00,0.8746
3230.00,0.8747
3229.00,0.8750
3228.00,0.8754
3227.00,0.8757
3226.00,0.8761
3225.00,0.8764
3224.00,0.8767
3223.00,0.8771
3222.00,0.8776
3221.00,0.8782
3220.00,0.8787
3219.00,0.8792
3218.00,0.8798
3217.00,0.8804
3216.00,0.8811
3215.00,0.8817
3214.00,0.8824
3213.00,0.8830
3212.00,0.8836
3211.00,0.8842
3210.00,0.8848
3209.00,0.8854
3208.00,0.8860
3207.00,0.8866
3206.00,0.8874
3205.00,0.8882
3204.00,0.8891
3203.00,0.8898
3202.00,0.8904
3201.00,0.8908
3200.00,0.8911
3199.00,0.8915
3198.00,0.8919
3197.00,0.8924
3196.00,0.8928
3195.00,0.8931
3194.00,0.8932
3193.00,0.8933
3192.00,0.8934
3191.00,0.8934
3190.00,0.8934
3189.00,0.8934
3188.00,0.8932
3187.00,0.8929
3186.00,0.8925
3185.00,0.8920
3184.00,0.8915
3183.00,0.8911
3182.00,0.8908
3181.00,0.8904
3180.00,0.8898
3179.00,0.8891
3178.00,0.8883
3177.00,0.8875
3176.00,0.8865
3175.00,0.8854
3174.00,0.8842
3173.00,0.8830
3172.00,0.8819
3171.00,0.8808
3170.00,0.8796
3169.00,0.8783
3168.00,0.8769
3167.00,0.8753
3166.00,0.8739
3165.00,0.8726
3164.00,0.8712
3163.00,0.8697
3162.00,0.8682
3161.00,0.8666
3160.00,0.8652
3159.00,0.8638
3158.00,0.8624
3157.00,0.8610
3156.00,0.8596
3155.00,0.8583
3154.00,0.8568
3153.00,0.8553
3152.00,0.8537
3151.00,0.8522
3150.00,0.8509
3149.00,0.8496
3148.00,0.8484
3147.00,0.8471
3146.00,0.8458
3145.00,0.8446
3144.00,0.8434
3143.00,0.8422
3142.00,0.8411
3141.00,0.8401
3140.00,0.8392
3139.00,0.8383
3138.00,0.8374
3137.00,0.8367
3136.00,0.8361
3135.00,0.8355
3134.00,0.8350
3133.00,0.8345
3132.00,0.8341
3131.00,0.8336
3130.00,0.8331
3129.00,0.8328
3128.00,0.8326
3127.00,0.8325
3126.00,0.8325
3125.00,0.8324
3124.00,0.8325
3123.00,0.8325
3122.00,0.8327
3121.00,0.8331
3120.00,0.8337
3119.00,0.8344
3118.00,0.8351
3117.00,0.8360
3116.00,0.8369
3115.00,0.8378
3114.00,0.8390
3113.00,0.8403
3112.00,0.8419
3111.00,0.8436
3110.00,0.8454
3109.00,0.8474
3108.00,0.8495
3107.00,0.8516
3106.00,0.8537
3105.00,0.8557
3104.00,0.8576
3103.00,0.8594
3102.00,0.8610
3101.00,0.8626
3100.00,0.8643
3099.00,0.8662
3098.00,0.8682
3097.00,0.8705
3096.00,0.8730
3095.00,0.8758
3094.00,0.8789
3093.00,0.8824
3092.00,0.8864
3091.00,0.8907
3090.00,0.8955
3089.00,0.9008
3088.00,0.9064
3087.00,0.9123
3086.00,0.9183
3085.00,0.9243
3084.00,0.9303
3083.00,0.9362
3082.00,0.9419
3081.00,0.9476
3080.00,0.9533
3079.00,0.9592
3078.00,0.9654
3077.00,0.9722
3076.00,0.9798
3075.00,0.9880
3074.00,0.9970
3073.00,1.0064
3072.00,1.0164
3071.00,1.0267
3070.00,1.0374
3069.00,1.0485
3068.00,1.0599
3067.00,1.0715
3066.00,1.0832
3065.00,1.0947
3064.00,1.1056
3063.00,1.1158
3062.00,1.1251
3061.00,1.1335
3060.00,1.1409
3059.00,1.1474
3058.00,1.1532
3057.00,1.1585
3056.00,1.1636
3055.00,1.1683
3054.00,1.1731
3053.00,1.1782
3052.00,1.1839
3051.00,1.1900
3050.00,1.1967
3049.00,1.2037
3048.00,1.2111
3047.00,1.2190
3046.00,1.2274
3045.00,1.2362
3044.00,1.2452
3043.00,1.2543
3042.00,1.2636
3041.00,1.2732
3040.00,1.2831
3039.00,1.2936
3038.00,1.3048
3037.00,1.3168
3036.00,1.3299
3035.00,1.3439
3034.00,1.3593
3033.00,1.3764
3032.00,1.3953
3031.00,1.4157
3030.00,1.4368
3029.00,1.4578
3028.00,1.4781
3027.00,1.4974
3026.00,1.5159
3025.00,1.5334
3024.00,1.5499
3023.00,1.5655
3022.00,1.5805
3021.00,1.5957
3020.00,1.6115
3019.00,1.6280
3018.00,1.6456
3017.00,1.6643
3016.00,1.6843
3015.00,1.7061
3014.00,1.7296
3013.00,1.7547
3012.00,1.7810
3011.00,1.8087
3010.00,1.8382
3009.00,1.8691
3008.00,1.9011
3007.00,1.9341
3006.00,1.9695
3005.00,2.0083
3004.00,2.0511
3003.00,2.0969
3002.00,2.1440
3001.00,2.1913
3000.00,2.2399
2999.00,2.2924
2998.00,2.3509
2997.00,2.4147
2996.00,2.4821
2995.00,2.5543
2994.00,2.6353
2993.00,2.7262
2992.00,2.8229
2991.00,2.9213
2990.00,3.0251
2989.00,3.1420
2988.00,3.2726
2987.00,3.4051
2986.00,3.5242
2985.00,3.6295
2984.00,3.7423
2983.00,3.9116
2982.00,4.1648
2981.00,4.3108
2980.00,4.3061
2979.00,4.2981
2978.00,4.3520
2977.00,4.2702
2976.00,4.2019
2975.00,4.4023
2974.00,4.5868
2973.00,4.4293
2972.00,4.3791
2971.00,4.4219
2970.00,4.2046
2969.00,3.9578
2968.00,3.8664
2967.00,3.9861
2966.00,4.2784
2965.00,4.2085
2964.00,3.9993
2963.00,3.8543
2962.00,3.9306
2961.00,4.1291
2960.00,4.2927
2959.00,4.3774
2958.00,4.2810
2957.00,4.1027
2956.00,3.9458
2955.00,3.8487
2954.00,3.8431
2953.00,3.9323
2952.00,4.0928
2951.00,4.2298
2950.00,4.1750
2949.00,4.0246
2948.00,3.9421
2947.00,3.9690
2946.00,4.0818
2945.00,4.3221
2944.00,4.7069
2943.00,4.6235
2942.00,4.4882
2941.00,4.3245
2940.00,4.2463
2939.00,4.2205
2938.00,4.4361
2937.00,4.4638
2936.00,4.1156
2935.00,3.9250
2934.00,3.9735
2933.00,4.2410
2932.00,4.5877
2931.00,4.6536
2930.00,4.5414
2929.00,4.4441
2928.00,4.3483
2927.00,4.1425
2926.00,3.9570
2925.00,3.8795
2924.00,3.9387
2923.00,4.1960
2922.00,4.5715
2921.00,4.4650
2920.00,4.2146
2919.00,4.0795
2918.00,4.1353
2917.00,4.4155
2916.00,4.4088
2915.00,4.2599
2914.00,4.1288
2913.00,4.1135
2912.00,4.0764
2911.00,4.1093
2910.00,4.4050
2909.00,4.4343
2908.00,4.1960
2907.00,4.0601
2906.00,4.0636
2905.00,4.0901
2904.00,4.1370
2903.00,4.3660
2902.00,4.5186
2901.00,4.2380
2900.00,3.9982
2899.00,3.8870
2898.00,3.8622
2897.00,3.8606
2896.00,3.9614
2895.00,4.2039
2894.00,4.2796
2893.00,4.0943
2892.00,3.9420
2891.00,3.9363
2890.00,4.0779
2889.00,4.2637
2888.00,4.2806
2887.00,4.1453
2886.00,4.1891
2885.00,4.6082
2884.00,4.4183
2883.00,4.1651
2882.00,4.0182
2881.00,4.0661
2880.00,4.0691
2879.00,4.0428
2878.00,4.1198
2877.00,4.2748
2876.00,4.5278
2875.00,4.7492
2874.00,4.8534
2873.00,4.8894
2872.00,4.8903
2871.00,4.4160
2870.00,4.1223
2869.00,3.9727
2868.00,3.9714
2867.00,4.0108
2866.00,3.9839
2865.00,4.0221
2864.00,4.2311
2863.00,4.4467
2862.00,4.2685
2861.00,4.1908
2860.00,4.3710
2859.00,4.3772
2858.00,4.2065
2857.00,4.1437
2856.00,4.1658
2855.00,4.0416
2854.00,3.9119
2853.00,3.8826
2852.00,3.9351
2851.00,4.0636
2850.00,4.1720
2849.00,4.2249
2848.00,4.2373
2847.00,4.3831
2846.00,4.7410
2845.00,4.3529
2844.00,3.9906
2843.00,3.8037
2842.00,3.7944
2841.00,3.8861
2840.00,4.0180
2839.00,4.1932
2838.00,4.3393
2837.00,4.4227
2836.00,4.3793
2835.00,4.2672
2834.00,4.1951
2833.00,4.2048
2832.00,4.2981
2831.00,4.4424
2830.00,4.4489
2829.00,4.1634
2828.00,3.8497
2827.00,3.6274
2826.00,3.4692
2825.00,3.3233
2824.00,3.1753
2823.00,3.0415
2822.00,2.9318
2821.00,2.8397
2820.00,2.7532
2819.00,2.6669
2818.00,2.5824
2817.00,2.5028
2816.00,2.4305
2815.00,2.3655
2814.00,2.3058
2813.00,2.2486
2812.00,2.1929
2811.00,2.1394
2810.00,2.0886
2809.00,2.0400
2808.00,1.9929
2807.00,1.9470
2806.00,1.9027
2805.00,1.8599
2804.00,1.8188
2803.00,1.7799
2802.00,1.7435
2801.00,1.7095
2800.00,1.6772
2799.00,1.6461
2798.00,1.6157
2797.00,1.5862
2796.00,1.5577
2795.00,1.5302
2794.00,1.5036
2793.00,1.4780
2792.00,1.4530
2791.00,1.4285
2790.00,1.4044
2789.00,1.3806
2788.00,1.3572
2787.00,1.3343
2786.00,1.3121
2785.00,1.2904
2784.00,1.2693
2783.00,1.2487
2782.00,1.2288
2781.00,1.2097
2780.00,1.1913
2779.00,1.1737
2778.00,1.1569
2777.00,1.1410
2776.00,1.1259
2775.00,1.1116
2774.00,1.0983
2773.00,1.0857
2772.00,1.0741
2771.00,1.0633
2770.00,1.0537
2769.00,1.0450
2768.00,1.0373
2767.00,1.0303
2766.00,1.0242
2765.00,1.0188
2764.00,1.0142
2763.00,1.0101
2762.00,1.0064
2761.00,1.0032
2760.00,1.0002
2759.00,0.9975
2758.00,0.9950
2757.00,0.9927
2756.00,0.9905
2755.00,0.9886
2754.00,0.9869
2753.00,0.9855
2752.00,0.9846
2751.00,0.9841
2750.00,0.9841
2749.00,0.9845
2748.00,0.9854
2747.00,0.9866
2746.00,0.9884
2745.00,0.9909
2744.00,0.9940
2743.00,0.9979
2742.00,1.0024
2741.00,1.0078
2740.00,1.0139
2739.00,1.0209
2738.00,1.0288
2737.00,1.0377
2736.00,1.0475
2735.00,1.0579
2734.00,1.0688
2733.00,1.0798
2732.00,1.0902
2731.00,1.0993
2730.00,1.1064
2729.00,1.1112
2728.00,1.1135
2727.00,1.1139
2726.00,1.1127
2725.00,1.1100
2724.00,1.1061
2723.00,1.1012
2722.00,1.0953
2721.00,1.0887
2720.00,1.0815
2719.00,1.0735
2718.00,1.0648
2717.00,1.0554
2716.00,1.0454
2715.00,1.0350
2714.00,1.0247
2713.00,1.0146
2712.00,1.0052
2711.00,0.9966
2710.00,0.9889
2709.00,0.9821
2708.00,0.9762
2707.00,0.9714
2706.00,0.9675
2705.00,0.9643
2704.00,0.9619
2703.00,0.9600
2702.00,0.9588
2701.00,0.9582
2700.00,0.9582
2699.00,0.9588
2698.00,0.9599
2697.00,0.9616
2696.00,0.9637
2695.00,0.9661
2694.00,0.9689
2693.00,0.9718
2692.00,0.9750
2691.00,0.9782
2690.00,0.9813
2689.00,0.9843
2688.00,0.9869
2687.00,0.9892
2686.00,0.9911
2685.00,0.9927
2684.00,0.9939
2683.00,0.9947
2682.00,0.9952
2681.00,0.9955
2680.00,0.9956
2679.00,0.9956
2678.00,0.9955
2677.00,0.9955
2676.00,0.9954
2675.00,0.9951
2674.00,0.9945
2673.00,0.9936
2672.00,0.9924
2671.00,0.9908
2670.00,0.9887
