Created as New Dataset,
cm-1,A
4000.00,0.2607
3999.00,0.2604
3998.00,0.2602
3997.00,0.2599
3996.00,0.2597
3995.00,0.2594
3994.00,0.2591
3993.00,0.2589
3992.00,0.2586
3991.00,0.2584
3990.00,0.2581
3989.00,0.2577
3988.00,0.2573
3987.00,0.2569
3986.00,0.2565
3985.00,0.2561
3984.00,0.2558
3983.00,0.2554
3982.00,0.2551
3981.00,0.2547
3980.00,0.2543
3979.00,0.2540
3978.00,0.2537
3977.00,0.2534
3976.00,0.2531
3975.00,0.2528
3974.00,0.2524
3973.00,0.2521
3972.00,0.2518
3971.00,0.2516
3970.00,0.2513
3969.00,0.2511
3968.00,0.2509
3967.00,0.2506
3966.00,0.2504
3965.00,0.2502
3964.00,0.2500
3963.00,0.2499
3962.00,0.2497
3961.00,0.2495
3960.00,0.2494
3959.00,0.2492
3958.00,0.2492
3957.00,0.2491
3956.00,0.2490
3955.00,0.2489
3954.00,0.2488
3953.00,0.2488
3952.00,0.2487
3951.00,0.2487
3950.00,0.2486
3949.00,0.2484
3948.00,0.2482
3947.00,0.2480
3946.00,0.2480
3945.00,0.2480
3944.00,0.2479
3943.00,0.2478
3942.00,0.2476
3941.00,0.2474
3940.00,0.2472
3939.00,0.2471
3938.00,0.2470
3937.00,0.2469
3936.00,0.2467
3935.00,0.2467
3934.00,0.2468
3933.00,0.2468
3932.00,0.2469
3931.00,0.2470
3930.00,0.2470
3929.00,0.2470
3928.00,0.2471
3927.00,0.2472
3926.00,0.2472
3925.00,0.2471
3924.00,0.2470
3923.00,0.2470
3922.00,0.2471
3921.00,0.2473
3920.00,0.2475
3919.00,0.2476
3918.00,0.2476
3917.00,0.2476
3916.00,0.2475
3915.00,0.2474
3914.00,0.2474
3913.00,0.2472
3912.00,0.2470
3911.00,0.2467
3910.00,0.2465
3909.00,0.2464
3908.00,0.2465
3907.00,0.2468
3906.00,0.2472
3905.00,0.2475
3904.00,0.2478
3903.00,0.2481
3902.00,0.2485
3901.00,0.2490
3900.00,0.2493
3899.00,0.2491
3898.00,0.2486
3897.00,0.2480
3896.00,0.2475
3895.00,0.2471
3894.00,0.2469
3893.00,0.2468
3892.00,0.2467
3891.00,0.2465
3890.00,0.2464
3889.00,0.2464
3888.00,0.2467
3887.00,0.2469
3886.00,0.2469
3885.00,0.2466
3884.00,0.2465
3883.00,0.2466
3882.00,0.2470
3881.00,0.2473
3880.00,0.2470
3879.00,0.2465
3878.00,0.2460
3877.00,0.2458
3876.00,0.2459
3875.00,0.2458
3874.00,0.2456
3873.00,0.2454
3872.00,0.2456
3871.00,0.2459
3870.00,0.2461
3869.00,0.2460
3868.00,0.2457
3867.00,0.2457
3866.00,0.2457
3865.00,0.2456
3864.00,0.2451
3863.00,0.2446
3862.00,0.2442
3861.00,0.2438
3860.00,0.2435
3859.00,0.2433
3858.00,0.2432
3857.00,0.2434
3856.00,0.2437
3855.00,0.2441
3854.00,0.2444
3853.00,0.2445
3852.00,0.2446
3851.00,0.2447
3850.00,0.2446
3849.00,0.2442
3848.00,0.2435
3847.00,0.2427
3846.00,0.2421
3845.00,0.2417
3844.00,0.2416
3843.00,0.2417
3842.00,0.2419
3841.00,0.2423
3840.00,0.2427
3839.00,0.2431
3838.00,0.2434
3837.00,0.2435
3836.00,0.2436
3835.00,0.2436
3834.00,0.2435
3833.00,0.2432
3832.00,0.2425
3831.00,0.2418
3830.00,0.2411
3829.00,0.2407
3828.00,0.2405
3827.00,0.2403
3826.00,0.2401
3825.00,0.2400
3824.00,0.2402
3823.00,0.2406
3822.00,0.2410
3821.00,0.2410
3820.00,0.2408
3819.00,0.2408
3818.00,0.2411
3817.00,0.2412
3816.00,0.2408
3815.00,0.2399
3814.00,0.2391
3813.00,0.2387
3812.00,0.2385
3811.00,0.2382
3810.00,0.2378
3809.00,0.2376
3808.00,0.2374
3807.00,0.2373
3806.00,0.2372
3805.00,0.2372
3804.00,0.2376
3803.00,0.2381
3802.00,0.2382
3801.00,0.2379
3800.00,0.2376
3799.00,0.2374
3798.00,0.2375
3797.00,0.2372
3796.00,0.2366
3795.00,0.2357
3794.00,0.2349
3793.00,0.2344
3792.00,0.2339
3791.00,0.2335
3790.00,0.2330
3789.00,0.2325
3788.00,0.2322
3787.00,0.2320
3786.00,0.2319
3785.00,0.2318
3784.00,0.2317
3783.00,0.2316
3782.00,0.2316
3781.00,0.2317
3780.00,0.2317
3779.00,0.2315
3778.00,0.2311
3777.00,0.2309
3776.00,0.2307
3775.00,0.2306
3774.00,0.2304
3773.00,0.2302
3772.00,0.2302
3771.00,0.2302
3770.00,0.2301
3769.00,0.2301
3768.00,0.2301
3767.00,0.2303
3766.00,0.2303
3765.00,0.2301
3764.00,0.2298
3763.00,0.2295
3762.00,0.2295
3761.00,0.2294
3760.00,0.2293
3759.00,0.2290
3758.00,0.2288
3757.00,0.2288
3756.00,0.2288
3755.00,0.2289
3754.00,0.2291
3753.00,0.2291
3752.00,0.2291
3751.00,0.2293
3750.00,0.2298
3749.00,0.2303
3748.00,0.2307
3747.00,0.2312
3746.00,0.2316
3745.00,0.2315
3744.00,0.2307
3743.00,0.2296
3742.00,0.2290
3741.00,0.2288
3740.00,0.2287
3739.00,0.2283
3738.00,0.2280
3737.00,0.2277
3736.00,0.2278
3735.00,0.2281
3734.00,0.2286
3733.00,0.2289
3732.00,0.2288
3731.00,0.2282
3730.00,0.2275
3729.00,0.2270
3728.00,0.2266
3727.00,0.2262
3726.00,0.2258
3725.00,0.2255
3724.00,0.2254
3723.00,0.2254
3722.00,0.2253
3721.00,0.2251
3720.00,0.2249
3719.00,0.2246
3718.00,0.2243
3717.00,0.2240
3716.00,0.2238
3715.00,0.2238
3714.00,0.2239
3713.00,0.2240
3712.00,0.2242
3711.00,0.2245
3710.00,0.2248
3709.00,0.2249
3708.00,0.2248
3707.00,0.2245
3706.00,0.2240
3705.00,0.2237
3704.00,0.2235
3703.00,0.2233
3702.00,0.2233
3701.00,0.2232
3700.00,0.2232
3699.00,0.2232
3698.00,0.2233
3697.00,0.2233
3696.00,0.2232
3695.00,0.2232
3694.00,0.2234
3693.00,0.2237
3692.00,0.2241
3691.00,0.2245
3690.00,0.2250
3689.00,0.2254
3688.00,0.2256
3687.00,0.2256
3686.00,0.2255
3685.00,0.2253
3684.00,0.2249
3683.00,0.2244
3682.00,0.2239
3681.00,0.2236
3680.00,0.2236
3679.00,0.2239
3678.00,0.2243
3677.00,0.2250
3676.00,0.2257
3675.00,0.2261
3674.00,0.2264
3673.00,0.2269
3672.00,0.2273
3671.00,0.2275
3670.00,0.2272
3669.00,0.2267
3668.00,0.2263
3667.00,0.2261
3666.00,0.2259
3665.00,0.2256
3664.00,0.2253
3663.00,0.2250
3662.00,0.2250
3661.00,0.2252
3660.00,0.2255
3659.00,0.2259
3658.00,0.2264
3657.00,0.2269
3656.00,0.2273
3655.00,0.2277
3654.00,0.2284
3653.00,0.2292
3652.00,0.2301
3651.00,0.2308
3650.00,0.2314
3649.00,0.2322
3648.00,0.2331
3647.00,0.2337
3646.00,0.2339
3645.00,0.2337
3644.00,0.2333
3643.00,0.2330
3642.00,0.2327
3641.00,0.2326
3640.00,0.2328
3639.00,0.2333
3638.00,0.2339
3637.00,0.2347
3636.00,0.2355
3635.00,0.2365
3634.00,0.2374
3633.00,0.2384
3632.00,0.2397
3631.00,0.2416
3630.00,0.2441
3629.00,0.2470
3628.00,0.2499
3627.00,0.2523
3626.00,0.2543
3625.00,0.2557
3624.00,0.2564
3623.00,0.2564
3622.00,0.2560
3621.00,0.2551
3620.00,0.2538
3619.00,0.2521
3618.00,0.2505
3617.00,0.2490
3616.00,0.2480
3615.00,0.2472
3614.00,0.2464
3613.00,0.2458
3612.00,0.2453
3611.00,0.2452
3610.00,0.2453
3609.00,0.2454
3608.00,0.2454
3607.00,0.2454
3606.00,0.2454
3605.00,0.2453
3604.00,0.2452
3603.00,0.2449
3602.00,0.2445
3601.00,0.2442
3600.00,0.2438
3599.00,0.2436
3598.00,0.2434
3597.00,0.2431
3596.00,0.2429
3595.00,0.2425
3594.00,0.2421
3593.00,0.2418
3592.00,0.2415
3591.00,0.2414
3590.00,0.2414
3589.00,0.2414
3588.00,0.2413
3587.00,0.2414
3586.00,0.2414
3585.00,0.2414
3584.00,0.2413
3583.00,0.2410
3582.00,0.2406
3581.00,0.2400
3580.00,0.2395
3579.00,0.2391
3578.00,0.2388
3577.00,0.2387
3576.00,0.2387
3575.00,0.2387
3574.00,0.2387
3573.00,0.2388
3572.00,0.2389
3571.00,0.2391
3570.00,0.2395
3569.00,0.2399
3568.00,0.2404
3567.00,0.2410
3566.00,0.2416
3565.00,0.2421
3564.00,0.2424
3563.00,0.2426
3562.00,0.2427
3561.00,0.2428
3560.00,0.2429
3559.00,0.2430
3558.00,0.2433
3557.00,0.2437
3556.00,0.2442
3555.00,0.2448
3554.00,0.2453
3553.00,0.2459
3552.00,0.2465
3551.00,0.2471
3550.00,0.2476
3549.00,0.2482
3548.00,0.2488
3547.00,0.2495
3546.00,0.2501
3545.00,0.2508
3544.00,0.2514
3543.00,0.2518
3542.00,0.2522
3541.00,0.2526
3540.00,0.2529
3539.00,0.2532
3538.00,0.2535
3537.00,0.2539
3536.00,0.2543
3535.00,0.2547
3534.00,0.2552
3533.00,0.2556
3532.00,0.2560
3531.00,0.2565
3530.00,0.2570
3529.00,0.2576
3528.00,0.2582
3527.00,0.2589
3526.00,0.2596
3525.00,0.2603
3524.00,0.2609
3523.00,0.2615
3522.00,0.2620
3521.00,0.2626
3520.00,0.2632
3519.00,0.2638
3518.00,0.2644
3517.00,0.2651
3516.00,0.2657
3515.00,0.2664
3514.00,0.2671
3513.00,0.2678
3512.00,0.2685
3511.00,0.2693
3510.00,0.2701
3509.00,0.2709
3508.00,0.2716
3507.00,0.2724
3506.00,0.2732
3505.00,0.2740
3504.00,0.2748
3503.00,0.2755
3502.00,0.2763
3501.00,0.2770
3500.00,0.2777
3499.00,0.2785
3498.00,0.2793
3497.00,0.2801
3496.00,0.2809
3495.00,0.2819
3494.00,0.2829
3493.00,0.2839
3492.00,0.2850
3491.00,0.2860
3490.00,0.2870
3489.00,0.2881
3488.00,0.2892
3487.00,0.2902
3486.00,0.2913
3485.00,0.2923
3484.00,0.2933
3483.00,0.2943
3482.00,0.2952
3481.00,0.2962
3480.00,0.2971
3479.00,0.2979
3478.00,0.2988
3477.00,0.2996
3476.00,0.3003
3475.00,0.3011
3474.00,0.3018
3473.00,0.3025
3472.00,0.3033
3471.00,0.3042
3470.00,0.3050
3469.00,0.3058
3468.00,0.3066
3467.00,0.3074
3466.00,0.3082
3465.00,0.3091
3464.00,0.3101
3463.00,0.3110
3462.00,0.3118
3461.00,0.3127
3460.00,0.3136
3459.00,0.3145
3458.00,0.3156
3457.00,0.3166
3456.00,0.3177
3455.00,0.3188
3454.00,0.3199
3453.00,0.3211
3452.00,0.3224
3451.00,0.3237
3450.00,0.3250
3449.00,0.3263
3448.00,0.3277
3447.00,0.3291
3446.00,0.3305
3445.00,0.3319
3444.00,0.3333
3443.00,0.3347
3442.00,0.3362
3441.00,0.3376
3440.00,0.3390
3439.00,0.3404
3438.00,0.3418
3437.00,0.3433
3436.00,0.3447
3435.00,0.3460
3434.00,0.3472
3433.00,0.3485
3432.00,0.3498
3431.00,0.3512
3430.00,0.3525
3429.00,0.3538
3428.00,0.3552
3427.00,0.3565
3426.00,0.3578
3425.00,0.3592
3424.00,0.3605
3423.00,0.3619
3422.00,0.3632
3421.00,0.3646
3420.00,0.3660
3419.00,0.3674
3418.00,0.3688
3417.00,0.3702
3416.00,0.3717
3415.00,0.3731
3414.00,0.3746
3413.00,0.3761
3412.00,0.3776
3411.00,0.3791
3410.00,0.3805
3409.00,0.3819
3408.00,0.3833
3407.00,0.3846
3406.00,0.3861
3405.00,0.3875
3404.00,0.3890
3403.00,0.3904
3402.00,0.3918
3401.00,0.3932
3400.00,0.3945
3399.00,0.3958
3398.00,0.3970
3397.00,0.3982
3396.00,0.3993
3395.00,0.4004
3394.00,0.4016
3393.00,0.4027
3392.00,0.4038
3391.00,0.4048
3390.00,0.4058
3389.00,0.4067
3388.00,0.4077
3387.00,0.4086
3386.00,0.4095
3385.00,0.4103
3384.00,0.4112
3383.00,0.4120
3382.00,0.4128
3381.00,0.4136
3380.00,0.4144
3379.00,0.4153
3378.00,0.4161
3377.00,0.4168
3376.00,0.4175
3375.00,0.4183
3374.00,0.4191
3373.00,0.4199
3372.00,0.4208
3371.00,0.4216
3370.00,0.4225
3369.00,0.4234
3368.00,0.4242
3367.00,0.4250
3366.00,0.4258
3365.00,0.4266
3364.00,0.4275
3363.00,0.4284
3362.00,0.4294
3361.00,0.4303
3360.00,0.4313
3359.00,0.4322
3358.00,0.4331
3357.00,0.4341
3356.00,0.4350
3355.00,0.4359
3354.00,0.4367
3353.00,0.4376
3352.00,0.4385
3351.00,0.4394
3350.00,0.4402
3349.00,0.4411
3348.00,0.4419
3347.00,0.4426
3346.00,0.4434
3345.00,0.4442
3344.00,0.4450
3343.00,0.4457
3342.00,0.4463
3341.00,0.4471
3340.00,0.4477
3339.00,0.4484
3338.00,0.4489
3337.00,0.4493
3336.00,0.4497
3335.00,0.4500
3334.00,0.4503
3333.00,0.4505
3332.00,0.4508
3331.00,0.4510
3330.00,0.4511
3329.00,0.4511
3328.00,0.4511
3327.00,0.4510
3326.00,0.4509
3325.00,0.4507
3324.00,0.4504
3323.00,0.4501
3322.00,0.4498
3321.00,0.4496
3320.00,0.4493
3319.00,0.4489
3318.00,0.4485
3317.00,0.4480
3316.00,0.4476
3315.00,0.4471
3314.00,0.4466
3313.00,0.4461
3312.00,0.4456
3311.00,0.4451
3310.00,0.4446
3309.00,0.4441
3308.00,0.4437
3307.00,0.4434
3306.00,0.4430
3305.00,0.4426
3304.00,0.4421
3303.00,0.4416
3302.00,0.4412
3301.00,0.4408
3300.00,0.4405
3299.00,0.4402
3298.00,0.4399
3297.00,0.4397
3296.00,0.4395
3295.00,0.4393
3294.00,0.4392
3293.00,0.4390
3292.00,0.4389
3291.00,0.4387
3290.00,0.4387
3289.00,0.4387
3288.00,0.4387
3287.00,0.4388
3286.00,0.4389
3285.00,0.4390
3284.00,0.4390
3283.00,0.4391
3282.00,0.4393
3281.00,0.4395
3280.00,0.4398
3279.00,0.4401
3278.00,0.4403
3277.00,0.4406
3276.00,0.4409
3275.00,0.4412
3274.00,0.4414
3273.00,0.4417
3272.00,0.4421
3271.00,0.4423
3270.00,0.4426
3269.00,0.4429
3268.00,0.4432
3267.00,0.4435
3266.00,0.4437
3265.00,0.4439
3264.00,0.4440
3263.00,0.4442
3262.00,0.4445
3261.00,0.4447
3260.00,0.4450
3259.00,0.4452
3258.00,0.4453
3257.00,0.4454
3256.00,0.4455
3255.00,0.4455
3254.00,0.4455
3253.00,0.4455
3252.00,0.4455
3251.00,0.4455
3250.00,0.4454
3249.00,0.4454
3248.00,0.4453
3247.00,0.4452
3246.00,0.4450
3245.00,0.4447
3244.00,0.4444
3243.00,0.4441
3242.00,0.4438
3241.00,0.4434
3240.00,0.4430
3239.00,0.4425
3238.00,0.4420
3237.00,0.4415
3236.00,0.4410
3235.00,0.4405
3234.00,0.4399
3233.00,0.4393
3232.00,0.4387
3231.00,0.4380
3230.00,0.4372
3229.00,0.4365
3228.00,0.4358
3227.00,0.4351
3226.00,0.4343
3225.00,0.4334
3224.00,0.4326
3223.00,0.4318
3222.00,0.4310
3221.00,0.4301
3220.00,0.4293
3219.00,0.4284
3218.00,0.4276
3217.00,0.4268
3216.00,0.4259
3215.00,0.4250
3214.00,0.4241
3213.00,0.4232
3212.00,0.4224
3211.00,0.4215
3210.00,0.4206
3209.00,0.4197
3208.00,0.4188
3207.00,0.4180
3206.00,0.4172
3205.00,0.4164
3204.00,0.4156
3203.00,0.4147
3202.00,0.4139
3201.00,0.4131
3200.00,0.4123
3199.00,0.4115
3198.00,0.4106
3197.00,0.4098
3196.00,0.4088
3195.00,0.4079
3194.00,0.4069
3193.00,0.4060
3192.00,0.4050
3191.00,0.4040
3190.00,0.4030
3189.00,0.4020
3188.00,0.4010
3187.00,0.4000
3186.00,0.3991
3185.00,0.3981
3184.00,0.3972
3183.00,0.3961
3182.00,0.3951
3181.00,0.3940
3180.00,0.3929
3179.00,0.3918
3178.00,0.3907
3177.00,0.3897
3176.00,0.3886
3175.00,0.3876
3174.00,0.3865
3173.00,0.3855
3172.00,0.3844
3171.00,0.3834
3170.00,0.3823
3169.00,0.3812
3168.00,0.3801
3167.00,0.3790
3166.00,0.3780
3165.00,0.3770
3164.00,0.3760
3163.00,0.3750
3162.00,0.3739
3161.00,0.3728
3160.00,0.3717
3159.00,0.3706
3158.00,0.3696
3157.00,0.3686
3156.00,0.3676
3155.00,0.3666
3154.00,0.3656
3153.00,0.3646
3152.00,0.3636
3151.00,0.3627
3150.00,0.3618
3149.00,0.3609
3148.00,0.3600
3147.00,0.3591
3146.00,0.3583
3145.00,0.3574
3144.00,0.3566
3143.00,0.3559
3142.00,0.3551
3141.00,0.3544
3140.00,0.3537
3139.00,0.3530
3138.00,0.3524
3137.00,0.3518
3136.00,0.3512
3135.00,0.3507
3134.00,0.3503
3133.00,0.3498
3132.00,0.3494
3131.00,0.3489
3130.00,0.3485
3129.00,0.3481
3128.00,0.3477
3127.00,0.3474
3126.00,0.3470
3125.00,0.3467
3124.00,0.3465
3123.00,0.3462
3122.00,0.3460
3121.00,0.3459
3120.00,0.3458
3119.00,0.3457
3118.00,0.3456
3117.00,0.3457
3116.00,0.3457
3115.00,0.3458
3114.00,0.3459
3113.00,0.3461
3112.00,0.3463
3111.00,0.3466
3110.00,0.3469
3109.00,0.3473
3108.00,0.3477
3107.00,0.3482
3106.00,0.3488
3105.00,0.3494
3104.00,0.3500
3103.00,0.3507
3102.00,0.3515
3101.00,0.3523
3100.00,0.3531
3099.00,0.3540
3098.00,0.3550
3097.00,0.3561
3096.00,0.3572
3095.00,0.3584
3094.00,0.3597
3093.00,0.3611
3092.00,0.3626
3091.00,0.3642
3090.00,0.3659
3089.00,0.3678
3088.00,0.3698
3087.00,0.3719
3086.00,0.3742
3085.00,0.3766
3084.00,0.3790
3083.00,0.3816
3082.00,0.3843
3081.00,0.3872
3080.00,0.3902
3079.00,0.3933
3078.00,0.3964
3077.00,0.3996
3076.00,0.4028
3075.00,0.4059
3074.00,0.4089
3073.00,0.4118
3072.00,0.4147
3071.00,0.4176
3070.00,0.4204
3069.00,0.4231
3068.00,0.4259
3067.00,0.4287
3066.00,0.4316
3065.00,0.4346
3064.00,0.4376
3063.00,0.4406
3062.00,0.4436
3061.00,0.4466
3060.00,0.4495
3059.00,0.4525
3058.00,0.4556
3057.00,0.4586
3056.00,0.4617
3055.00,0.4649
3054.00,0.4680
3053.00,0.4712
3052.00,0.4746
3051.00,0.4779
3050.00,0.4814
3049.00,0.4850
3048.00,0.4886
3047.00,0.4924
3046.00,0.4962
3045.00,0.5002
3044.00,0.5042
3043.00,0.5083
3042.00,0.5125
3041.00,0.5168
3040.00,0.5214
3039.00,0.5261
3038.00,0.5312
3037.00,0.5365
3036.00,0.5423
3035.00,0.5483
3034.00,0.5547
3033.00,0.5614
3032.00,0.5685
3031.00,0.5762
3030.00,0.5843
3029.00,0.5928
3028.00,0.6018
3027.00,0.6111
3026.00,0.6210
3025.00,0.6315
3024.00,0.6427
3023.00,0.6545
3022.00,0.6669
3021.00,0.6800
3020.00,0.6938
3019.00,0.7085
3018.00,0.7241
3017.00,0.7408
3016.00,0.7584
3015.00,0.7772
3014.00,0.7972
3013.00,0.8184
3012.00,0.8411
3011.00,0.8654
3010.00,0.8915
3009.00,0.9195
3008.00,0.9498
3007.00,0.9825
3006.00,1.0181
3005.00,1.0565
3004.00,1.0977
3003.00,1.1415
3002.00,1.1881
3001.00,1.2375
3000.00,1.2897
2999.00,1.3448
2998.00,1.4027
2997.00,1.4631
2996.00,1.5257
2995.00,1.5901
2994.00,1.6564
2993.00,1.7242
2992.00,1.7929
2991.00,1.8621
2990.00,1.9318
2989.00,2.0027
2988.00,2.0755
2987.00,2.1510
2986.00,2.2301
2985.00,2.3134
2984.00,2.4012
2983.00,2.4947
2982.00,2.5952
2981.00,2.7047
2980.00,2.8277
2979.00,2.9746
2978.00,3.1535
2977.00,3.3489
2976.00,3.5076
2975.00,3.5905
2974.00,3.6325
2973.00,3.6795
2972.00,3.7176
2971.00,3.6971
2970.00,3.6277
2969.00,3.5773
2968.00,3.5876
2967.00,3.6557
2966.00,3.7381
2965.00,3.7814
2964.00,3.8017
2963.00,3.8624
2962.00,4.0013
2961.00,4.1389
2960.00,4.1449
2959.00,4.1443
2958.00,4.2498
2957.00,4.5698
2956.00,4.8918
2955.00,4.7872
2954.00,4.7824
2953.00,4.5725
2952.00,4.3912
2951.00,4.1881
2950.00,4.1542
2949.00,4.2439
2948.00,4.2914
2947.00,4.3721
2946.00,4.5178
2945.00,4.7043
2944.00,4.4663
2943.00,4.1026
2942.00,3.8829
2941.00,3.7766
2940.00,3.7848
2939.00,3.9216
2938.00,4.1169
2937.00,4.1854
2936.00,4.2073
2935.00,4.4068
2934.00,4.8024
2933.00,4.6989
2932.00,4.3688
2931.00,4.3177
2930.00,4.4667
2929.00,4.4458
2928.00,4.2451
2927.00,4.0821
2926.00,4.0841
2925.00,4.1876
2924.00,4.1764
2923.00,4.0571
2922.00,3.9459
2921.00,3.9039
2920.00,3.9317
2919.00,4.0313
2918.00,4.2329
2917.00,4.3360
2916.00,4.2599
2915.00,4.1497
2914.00,4.2267
2913.00,4.5889
2912.00,4.4665
2911.00,4.1991
2910.00,4.0096
2909.00,4.0719
2908.00,4.3588
2907.00,4.4016
2906.00,4.0309
2905.00,3.7420
2904.00,3.6303
2903.00,3.6512
2902.00,3.7416
2901.00,3.8786
2900.00,4.0744
2899.00,4.2493
2898.00,4.0946
2897.00,3.8982
2896.00,3.8416
2895.00,4.0120
2894.00,4.3378
2893.00,4.4171
2892.00,4.3326
2891.00,4.2897
2890.00,4.4154
2889.00,4.4167
2888.00,4.2995
2887.00,4.3005
2886.00,4.4672
2885.00,4.6927
2884.00,4.5705
2883.00,4.4267
2882.00,4.5318
2881.00,4.6527
2880.00,4.2916
2879.00,4.0030
2878.00,3.8554
2877.00,3.8336
2876.00,3.8691
2875.00,3.9175
2874.00,3.9477
2873.00,3.9397
2872.00,3.9648
2871.00,4.0292
2870.00,4.1601
2869.00,4.4202
2868.00,4.3511
2867.00,4.0062
2866.00,3.7801
2865.00,3.7117
2864.00,3.7349
2863.00,3.7907
2862.00,3.9081
2861.00,4.1531
2860.00,4.4195
2859.00,4.2078
2858.00,4.0216
2857.00,3.9701
2856.00,3.9010
2855.00,3.7774
2854.00,3.6907
2853.00,3.6620
2852.00,3.6581
2851.00,3.6943
2850.00,3.7226
2849.00,3.6879
2848.00,3.6769
2847.00,3.7792
2846.00,4.0101
2845.00,4.2185
2844.00,4.1534
2843.00,3.9857
2842.00,3.8488
2841.00,3.7235
2840.00,3.5839
2839.00,3.4207
2838.00,3.2216
2837.00,2.9978
2836.00,2.7794
2835.00,2.5814
2834.00,2.4034
2833.00,2.2426
2832.00,2.0979
2831.00,1.9691
2830.00,1.8547
2829.00,1.7527
2828.00,1.6615
2827.00,1.5801
2826.00,1.5070
2825.00,1.4410
2824.00,1.3812
2823.00,1.3272
2822.00,1.2785
2821.00,1.2339
2820.00,1.1926
2819.00,1.1539
2818.00,1.1177
2817.00,1.0841
2816.00,1.0527
2815.00,1.0234
2814.00,0.9959
2813.00,0.9699
2812.00,0.9452
2811.00,0.9216
2810.00,0.8990
2809.00,0.8773
2808.00,0.8564
2807.00,0.8363
2806.00,0.8170
2805.00,0.7984
2804.00,0.7808
2803.00,0.7641
2802.00,0.7481
2801.00,0.7329
2800.00,0.7182
2799.00,0.7042
2798.00,0.6909
2797.00,0.6783
2796.00,0.6661
2795.00,0.6545
2794.00,0.6434
2793.00,0.6326
2792.00,0.6223
2791.00,0.6123
2790.00,0.6027
2789.00,0.5932
2788.00,0.5840
2787.00,0.5750
2786.00,0.5663
2785.00,0.5578
2784.00,0.5496
2783.00,0.5415
2782.00,0.5337
2781.00,0.5262
2780.00,0.5189
2779.00,0.5120
2778.00,0.5054
2777.00,0.4991
2776.00,0.4930
2775.00,0.4873
2774.00,0.4819
2773.00,0.4768
2772.00,0.4720
2771.00,0.4675
2770.00,0.4632
2769.00,0.4592
2768.00,0.4553
2767.00,0.4518
2766.00,0.4486
2765.00,0.4456
2764.00,0.4429
2763.00,0.4405
2762.00,0.4384
2761.00,0.4366
2760.00,0.4350
2759.00,0.4336
2758.00,0.4323
2757.00,0.4311
2756.00,0.4300
2755.00,0.4292
2754.00,0.4285
2753.00,0.4280
2752.00,0.4278
2751.00,0.4278
2750.00,0.4280
2749.00,0.4284
2748.00,0.4291
2747.00,0.4299
2746.00,0.4310
2745.00,0.4324
2744.00,0.4340
2743.00,0.4360
2742.00,0.4381
2741.00,0.4405
2740.00,0.4433
2739.00,0.4463
2738.00,0.4497
2737.00,0.4533
2736.00,0.4573
2735.00,0.4614
2734.00,0.4656
2733.00,0.4696
2732.00,0.4732
2731.00,0.4761
2730.00,0.4782
2729.00,0.4794
2728.00,0.4796
2727.00,0.4791
2726.00,0.4780
2725.00,0.4765
2724.00,0.4747
2723.00,0.4726
2722.00,0.4704
2721.00,0.4680
2720.00,0.4654
2719.00,0.4625
2718.00,0.4594
2717.00,0.4561
2716.00,0.4525
2715.00,0.4487
2714.00,0.4448
2713.00,0.4409
2712.00,0.4371
2711.00,0.4336
2710.00,0.4303
2709.00,0.4273
2708.00,0.4246
2707.00,0.4222
2706.00,0.4202
2705.00,0.4184
2704.00,0.4169
2703.00,0.4156
2702.00,0.4147
2701.00,0.4140
2700.00,0.4137
2699.00,0.4136
2698.00,0.4138
2697.00,0.4143
2696.00,0.4149
2695.00,0.4157
2694.00,0.4166
2693.00,0.4176
2692.00,0.4187
2691.00,0.4199
2690.00,0.4210
2689.00,0.4221
2688.00,0.4231
2687.00,0.4239
2686.00,0.4246
2685.00,0.4252
2684.00,0.4255
2683.00,0.4257
2682.00,0.4258
2681.00,0.4259
2680.00,0.4259
2679.00,0.4259
2678.00,0.4259
2677.00,0.4258
2676.00,0.4257
2675.00,0.4255
2674.00,0.4252
2673.00,0.4247
2672.00,0.4242
2671.00,0.4235
2670.00,0.4226
