Created as New Dataset,
cm-1,A
4000.00,0.2975
3999.00,0.2972
3998.00,0.2969
3997.00,0.2967
3996.00,0.2964
3995.00,0.2962
3994.00,0.2959
3993.00,0.2955
3992.00,0.2951
3991.00,0.2947
3990.00,0.2943
3989.00,0.2939
3988.00,0.2936
3987.00,0.2932
3986.00,0.2929
3985.00,0.2926
3984.00,0.2922
3983.00,0.2918
3982.00,0.2914
3981.00,0.2910
3980.00,0.2906
3979.00,0.2903
3978.00,0.2900
3977.00,0.2896
3976.00,0.2892
3975.00,0.2889
3974.00,0.2886
3973.00,0.2882
3972.00,0.2880
3971.00,0.2877
3970.00,0.2873
3969.00,0.2870
3968.00,0.2867
3967.00,0.2865
3966.00,0.2862
3965.00,0.2860
3964.00,0.2857
3963.00,0.2855
3962.00,0.2853
3961.00,0.2851
3960.00,0.2850
3959.00,0.2849
3958.00,0.2848
3957.00,0.2846
3956.00,0.2845
3955.00,0.2844
3954.00,0.2842
3953.00,0.2841
3952.00,0.2840
3951.00,0.2838
3950.00,0.2837
3949.00,0.2836
3948.00,0.2835
3947.00,0.2834
3946.00,0.2833
3945.00,0.2832
3944.00,0.2831
3943.00,0.2829
3942.00,0.2828
3941.00,0.2827
3940.00,0.2828
3939.00,0.2827
3938.00,0.2827
3937.00,0.2826
3936.00,0.2826
3935.00,0.2826
3934.00,0.2825
3933.00,0.2824
3932.00,0.2824
3931.00,0.2823
3930.00,0.2823
3929.00,0.2822
3928.00,0.2822
3927.00,0.2822
3926.00,0.2822
3925.00,0.2822
3924.00,0.2822
3923.00,0.2822
3922.00,0.2822
3921.00,0.2822
3920.00,0.2822
3919.00,0.2822
3918.00,0.2822
3917.00,0.2822
3916.00,0.2822
3915.00,0.2821
3914.00,0.2821
3913.00,0.2821
3912.00,0.2820
3911.00,0.2818
3910.00,0.2817
3909.00,0.2816
3908.00,0.2815
3907.00,0.2814
3906.00,0.2813
3905.00,0.2812
3904.00,0.2811
3903.00,0.2811
3902.00,0.2811
3901.00,0.2811
3900.00,0.2809
3899.00,0.2807
3898.00,0.2806
3897.00,0.2805
3896.00,0.2805
3895.00,0.2803
3894.00,0.2802
3893.00,0.2802
3892.00,0.2802
3891.00,0.2800
3890.00,0.2798
3889.00,0.2798
3888.00,0.2799
3887.00,0.2798
3886.00,0.2795
3885.00,0.2792
3884.00,0.2792
3883.00,0.2793
3882.00,0.2794
3881.00,0.2791
3880.00,0.2789
3879.00,0.2788
3878.00,0.2790
3877.00,0.2791
3876.00,0.2789
3875.00,0.2786
3874.00,0.2782
3873.00,0.2782
3872.00,0.2783
3871.00,0.2782
3870.00,0.2778
3869.00,0.2773
3868.00,0.2771
3867.00,0.2772
3866.00,0.2770
3865.00,0.2765
3864.00,0.2762
3863.00,0.2762
3862.00,0.2763
3861.00,0.2763
3860.00,0.2761
3859.00,0.2759
3858.00,0.2757
3857.00,0.2757
3856.00,0.2760
3855.00,0.2763
3854.00,0.2762
3853.00,0.2755
3852.00,0.2751
3851.00,0.2755
3850.00,0.2758
3849.00,0.2755
3848.00,0.2751
3847.00,0.2750
3846.00,0.2752
3845.00,0.2753
3844.00,0.2754
3843.00,0.2754
3842.00,0.2753
3841.00,0.2752
3840.00,0.2751
3839.00,0.2750
3838.00,0.2747
3837.00,0.2745
3836.00,0.2744
3835.00,0.2743
3834.00,0.2742
3833.00,0.2741
3832.00,0.2739
3831.00,0.2738
3830.00,0.2739
3829.00,0.2739
3828.00,0.2739
3827.00,0.2737
3826.00,0.2734
3825.00,0.2734
3824.00,0.2735
3823.00,0.2735
3822.00,0.2734
3821.00,0.2729
3820.00,0.2725
3819.00,0.2726
3818.00,0.2727
3817.00,0.2724
3816.00,0.2720
3815.00,0.2717
3814.00,0.2720
3813.00,0.2722
3812.00,0.2721
3811.00,0.2717
3810.00,0.2714
3809.00,0.2715
3808.00,0.2714
3807.00,0.2710
3806.00,0.2704
3805.00,0.2703
3804.00,0.2703
3803.00,0.2702
3802.00,0.2697
3801.00,0.2692
3800.00,0.2690
3799.00,0.2691
3798.00,0.2691
3797.00,0.2687
3796.00,0.2684
3795.00,0.2684
3794.00,0.2685
3793.00,0.2685
3792.00,0.2682
3791.00,0.2679
3790.00,0.2677
3789.00,0.2676
3788.00,0.2675
3787.00,0.2673
3786.00,0.2672
3785.00,0.2670
3784.00,0.2668
3783.00,0.2666
3782.00,0.2666
3781.00,0.2665
3780.00,0.2663
3779.00,0.2660
3778.00,0.2658
3777.00,0.2657
3776.00,0.2656
3775.00,0.2654
3774.00,0.2652
3773.00,0.2651
3772.00,0.2650
3771.00,0.2648
3770.00,0.2646
3769.00,0.2643
3768.00,0.2642
3767.00,0.2642
3766.00,0.2639
3765.00,0.2636
3764.00,0.2633
3763.00,0.2633
3762.00,0.2632
3761.00,0.2629
3760.00,0.2626
3759.00,0.2624
3758.00,0.2623
3757.00,0.2621
3756.00,0.2618
3755.00,0.2616
3754.00,0.2615
3753.00,0.2614
3752.00,0.2612
3751.00,0.2610
3750.00,0.2605
3749.00,0.2600
3748.00,0.2599
3747.00,0.2599
3746.00,0.2600
3745.00,0.2600
3744.00,0.2597
3743.00,0.2596
3742.00,0.2600
3741.00,0.2602
3740.00,0.2598
3739.00,0.2594
3738.00,0.2595
3737.00,0.2598
3736.00,0.2598
3735.00,0.2596
3734.00,0.2596
3733.00,0.2596
3732.00,0.2595
3731.00,0.2593
3730.00,0.2592
3729.00,0.2592
3728.00,0.2591
3727.00,0.2589
3726.00,0.2588
3725.00,0.2587
3724.00,0.2587
3723.00,0.2586
3722.00,0.2585
3721.00,0.2584
3720.00,0.2583
3719.00,0.2582
3718.00,0.2581
3717.00,0.2578
3716.00,0.2577
3715.00,0.2576
3714.00,0.2576
3713.00,0.2576
3712.00,0.2575
3711.00,0.2574
3710.00,0.2574
3709.00,0.2575
3708.00,0.2576
3707.00,0.2576
3706.00,0.2576
3705.00,0.2577
3704.00,0.2578
3703.00,0.2579
3702.00,0.2580
3701.00,0.2579
3700.00,0.2579
3699.00,0.2580
3698.00,0.2579
3697.00,0.2578
3696.00,0.2577
3695.00,0.2577
3694.00,0.2577
3693.00,0.2576
3692.00,0.2575
3691.00,0.2575
3690.00,0.2575
3689.00,0.2574
3688.00,0.2572
3687.00,0.2571
3686.00,0.2572
3685.00,0.2572
3684.00,0.2571
3683.00,0.2570
3682.00,0.2570
3681.00,0.2571
3680.00,0.2570
3679.00,0.2570
3678.00,0.2571
3677.00,0.2572
3676.00,0.2571
3675.00,0.2565
3674.00,0.2563
3673.00,0.2565
3672.00,0.2567
3671.00,0.2566
3670.00,0.2565
3669.00,0.2566
3668.00,0.2570
3667.00,0.2574
3666.00,0.2575
3665.00,0.2575
3664.00,0.2575
3663.00,0.2578
3662.00,0.2580
3661.00,0.2582
3660.00,0.2583
3659.00,0.2585
3658.00,0.2588
3657.00,0.2589
3656.00,0.2589
3655.00,0.2590
3654.00,0.2591
3653.00,0.2593
3652.00,0.2594
3651.00,0.2595
3650.00,0.2597
3649.00,0.2599
3648.00,0.2601
3647.00,0.2603
3646.00,0.2606
3645.00,0.2609
3644.00,0.2612
3643.00,0.2615
3642.00,0.2619
3641.00,0.2624
3640.00,0.2629
3639.00,0.2635
3638.00,0.2640
3637.00,0.2645
3636.00,0.2651
3635.00,0.2657
3634.00,0.2662
3633.00,0.2668
3632.00,0.2677
3631.00,0.2691
3630.00,0.2708
3629.00,0.2726
3628.00,0.2745
3627.00,0.2765
3626.00,0.2782
3625.00,0.2790
3624.00,0.2789
3623.00,0.2785
3622.00,0.2777
3621.00,0.2765
3620.00,0.2748
3619.00,0.2728
3618.00,0.2710
3617.00,0.2696
3616.00,0.2685
3615.00,0.2676
3614.00,0.2669
3613.00,0.2664
3612.00,0.2662
3611.00,0.2661
3610.00,0.2660
3609.00,0.2659
3608.00,0.2658
3607.00,0.2659
3606.00,0.2660
3605.00,0.2660
3604.00,0.2659
3603.00,0.2657
3602.00,0.2654
3601.00,0.2648
3600.00,0.2642
3599.00,0.2634
3598.00,0.2625
3597.00,0.2616
3596.00,0.2607
3595.00,0.2598
3594.00,0.2590
3593.00,0.2583
3592.00,0.2577
3591.00,0.2571
3590.00,0.2566
3589.00,0.2560
3588.00,0.2555
3587.00,0.2549
3586.00,0.2545
3585.00,0.2542
3584.00,0.2539
3583.00,0.2535
3582.00,0.2531
3581.00,0.2527
3580.00,0.2524
3579.00,0.2521
3578.00,0.2519
3577.00,0.2516
3576.00,0.2514
3575.00,0.2513
3574.00,0.2512
3573.00,0.2511
3572.00,0.2510
3571.00,0.2509
3570.00,0.2508
3569.00,0.2508
3568.00,0.2508
3567.00,0.2508
3566.00,0.2508
3565.00,0.2509
3564.00,0.2511
3563.00,0.2513
3562.00,0.2514
3561.00,0.2516
3560.00,0.2518
3559.00,0.2520
3558.00,0.2522
3557.00,0.2524
3556.00,0.2525
3555.00,0.2527
3554.00,0.2529
3553.00,0.2531
3552.00,0.2534
3551.00,0.2537
3550.00,0.2539
3549.00,0.2542
3548.00,0.2544
3547.00,0.2546
3546.00,0.2549
3545.00,0.2551
3544.00,0.2554
3543.00,0.2556
3542.00,0.2559
3541.00,0.2562
3540.00,0.2565
3539.00,0.2568
3538.00,0.2571
3537.00,0.2574
3536.00,0.2576
3535.00,0.2579
3534.00,0.2581
3533.00,0.2584
3532.00,0.2586
3531.00,0.2590
3530.00,0.2593
3529.00,0.2596
3528.00,0.2600
3527.00,0.2604
3526.00,0.2607
3525.00,0.2610
3524.00,0.2613
3523.00,0.2616
3522.00,0.2619
3521.00,0.2623
3520.00,0.2628
3519.00,0.2632
3518.00,0.2637
3517.00,0.2641
3516.00,0.2645
3515.00,0.2649
3514.00,0.2654
3513.00,0.2658
3512.00,0.2663
3511.00,0.2668
3510.00,0.2673
3509.00,0.2678
3508.00,0.2683
3507.00,0.2689
3506.00,0.2695
3505.00,0.2701
3504.00,0.2707
3503.00,0.2712
3502.00,0.2718
3501.00,0.2724
3500.00,0.2731
3499.00,0.2738
3498.00,0.2746
3497.00,0.2754
3496.00,0.2762
3495.00,0.2770
3494.00,0.2779
3493.00,0.2787
3492.00,0.2796
3491.00,0.2805
3490.00,0.2815
3489.00,0.2824
3488.00,0.2833
3487.00,0.2841
3486.00,0.2850
3485.00,0.2858
3484.00,0.2865
3483.00,0.2872
3482.00,0.2879
3481.00,0.2886
3480.00,0.2892
3479.00,0.2898
3478.00,0.2903
3477.00,0.2908
3476.00,0.2914
3475.00,0.2920
3474.00,0.2927
3473.00,0.2933
3472.00,0.2939
3471.00,0.2946
3470.00,0.2952
3469.00,0.2960
3468.00,0.2967
3467.00,0.2974
3466.00,0.2981
3465.00,0.2989
3464.00,0.2996
3463.00,0.3004
3462.00,0.3013
3461.00,0.3022
3460.00,0.3032
3459.00,0.3041
3458.00,0.3050
3457.00,0.3059
3456.00,0.3068
3455.00,0.3078
3454.00,0.3088
3453.00,0.3099
3452.00,0.3110
3451.00,0.3122
3450.00,0.3134
3449.00,0.3146
3448.00,0.3159
3447.00,0.3172
3446.00,0.3185
3445.00,0.3200
3444.00,0.3215
3443.00,0.3231
3442.00,0.3247
3441.00,0.3263
3440.00,0.3279
3439.00,0.3294
3438.00,0.3308
3437.00,0.3322
3436.00,0.3335
3435.00,0.3347
3434.00,0.3358
3433.00,0.3368
3432.00,0.3377
3431.00,0.3386
3430.00,0.3394
3429.00,0.3402
3428.00,0.3411
3427.00,0.3419
3426.00,0.3428
3425.00,0.3436
3424.00,0.3444
3423.00,0.3452
3422.00,0.3460
3421.00,0.3468
3420.00,0.3476
3419.00,0.3485
3418.00,0.3494
3417.00,0.3503
3416.00,0.3513
3415.00,0.3522
3414.00,0.3533
3413.00,0.3543
3412.00,0.3553
3411.00,0.3563
3410.00,0.3572
3409.00,0.3582
3408.00,0.3591
3407.00,0.3600
3406.00,0.3609
3405.00,0.3619
3404.00,0.3629
3403.00,0.3639
3402.00,0.3648
3401.00,0.3657
3400.00,0.3665
3399.00,0.3673
3398.00,0.3681
3397.00,0.3688
3396.00,0.3696
3395.00,0.3704
3394.00,0.3711
3393.00,0.3718
3392.00,0.3725
3391.00,0.3731
3390.00,0.3737
3389.00,0.3744
3388.00,0.3750
3387.00,0.3756
3386.00,0.3763
3385.00,0.3769
3384.00,0.3774
3383.00,0.3779
3382.00,0.3784
3381.00,0.3789
3380.00,0.3795
3379.00,0.3800
3378.00,0.3806
3377.00,0.3812
3376.00,0.3818
3375.00,0.3823
3374.00,0.3829
3373.00,0.3835
3372.00,0.3841
3371.00,0.3847
3370.00,0.3854
3369.00,0.3860
3368.00,0.3867
3367.00,0.3874
3366.00,0.3880
3365.00,0.3887
3364.00,0.3894
3363.00,0.3901
3362.00,0.3908
3361.00,0.3915
3360.00,0.3922
3359.00,0.3929
3358.00,0.3936
3357.00,0.3944
3356.00,0.3951
3355.00,0.3958
3354.00,0.3965
3353.00,0.3972
3352.00,0.3978
3351.00,0.3984
3350.00,0.3990
3349.00,0.3996
3348.00,0.4002
3347.00,0.4008
3346.00,0.4014
3345.00,0.4019
3344.00,0.4024
3343.00,0.4028
3342.00,0.4032
3341.00,0.4036
3340.00,0.4039
3339.00,0.4043
3338.00,0.4045
3337.00,0.4048
3336.00,0.4049
3335.00,0.4051
3334.00,0.4052
3333.00,0.4052
3332.00,0.4053
3331.00,0.4052
3330.00,0.4051
3329.00,0.4050
3328.00,0.4048
3327.00,0.4046
3326.00,0.4044
3325.00,0.4041
3324.00,0.4039
3323.00,0.4036
3322.00,0.4033
3321.00,0.4029
3320.00,0.4026
3319.00,0.4023
3318.00,0.4020
3317.00,0.4016
3316.00,0.4013
3315.00,0.4010
3314.00,0.4006
3313.00,0.4002
3312.00,0.3999
3311.00,0.3995
3310.00,0.3992
3309.00,0.3988
3308.00,0.3984
3307.00,0.3980
3306.00,0.3976
3305.00,0.3973
3304.00,0.3969
3303.00,0.3966
3302.00,0.3964
3301.00,0.3961
3300.00,0.3959
3299.00,0.3956
3298.00,0.3954
3297.00,0.3953
3296.00,0.3952
3295.00,0.3951
3294.00,0.3950
3293.00,0.3949
3292.00,0.3948
3291.00,0.3948
3290.00,0.3947
3289.00,0.3948
3288.00,0.3948
3287.00,0.3949
3286.00,0.3951
3285.00,0.3952
3284.00,0.3954
3283.00,0.3956
3282.00,0.3957
3281.00,0.3959
3280.00,0.3961
3279.00,0.3963
3278.00,0.3965
3277.00,0.3967
3276.00,0.3969
3275.00,0.3971
3274.00,0.3974
3273.00,0.3977
3272.00,0.3980
3271.00,0.3983
3270.00,0.3985
3269.00,0.3987
3268.00,0.3989
3267.00,0.3990
3266.00,0.3992
3265.00,0.3994
3264.00,0.3996
3263.00,0.3999
3262.00,0.4001
3261.00,0.4002
3260.00,0.4003
3259.00,0.4004
3258.00,0.4005
3257.00,0.4007
3256.00,0.4009
3255.00,0.4010
3254.00,0.4011
3253.00,0.4011
3252.00,0.4012
3251.00,0.4011
3250.00,0.4010
3249.00,0.4009
3248.00,0.4009
3247.00,0.4008
3246.00,0.4007
3245.00,0.4005
3244.00,0.4002
3243.00,0.4000
3242.00,0.3998
3241.00,0.3996
3240.00,0.3994
3239.00,0.3991
3238.00,0.3988
3237.00,0.3985
3236.00,0.3981
3235.00,0.3976
3234.00,0.3972
3233.00,0.3968
3232.00,0.3965
3231.00,0.3961
3230.00,0.3958
3229.00,0.3954
3228.00,0.3950
3227.00,0.3946
3226.00,0.3941
3225.00,0.3937
3224.00,0.3932
3223.00,0.3928
3222.00,0.3923
3221.00,0.3919
3220.00,0.3914
3219.00,0.3910
3218.00,0.3906
3217.00,0.3902
3216.00,0.3898
3215.00,0.3895
3214.00,0.3891
3213.00,0.3887
3212.00,0.3883
3211.00,0.3879
3210.00,0.3876
3209.00,0.3873
3208.00,0.3870
3207.00,0.3867
3206.00,0.3863
3205.00,0.3860
3204.00,0.3857
3203.00,0.3854
3202.00,0.3851
3201.00,0.3848
3200.00,0.3844
3199.00,0.3841
3198.00,0.3837
3197.00,0.3834
3196.00,0.3831
3195.00,0.3827
3194.00,0.3823
3193.00,0.3819
3192.00,0.3814
3191.00,0.3810
3190.00,0.3805
3189.00,0.3801
3188.00,0.3797
3187.00,0.3793
3186.00,0.3789
3185.00,0.3784
3184.00,0.3779
3183.00,0.3774
3182.00,0.3769
3181.00,0.3763
3180.00,0.3757
3179.00,0.3751
3178.00,0.3744
3177.00,0.3738
3176.00,0.3732
3175.00,0.3726
3174.00,0.3720
3173.00,0.3714
3172.00,0.3707
3171.00,0.3700
3170.00,0.3693
3169.00,0.3686
3168.00,0.3679
3167.00,0.3673
3166.00,0.3666
3165.00,0.3659
3164.00,0.3653
3163.00,0.3646
3162.00,0.3639
3161.00,0.3632
3160.00,0.3626
3159.00,0.3619
3158.00,0.3613
3157.00,0.3606
3156.00,0.3599
3155.00,0.3592
3154.00,0.3586
3153.00,0.3580
3152.00,0.3574
3151.00,0.3568
3150.00,0.3563
3149.00,0.3557
3148.00,0.3552
3147.00,0.3547
3146.00,0.3542
3145.00,0.3538
3144.00,0.3533
3143.00,0.3529
3142.00,0.3525
3141.00,0.3521
3140.00,0.3518
3139.00,0.3514
3138.00,0.3511
3137.00,0.3509
3136.00,0.3506
3135.00,0.3504
3134.00,0.3501
3133.00,0.3499
3132.00,0.3498
3131.00,0.3497
3130.00,0.3496
3129.00,0.3495
3128.00,0.3495
3127.00,0.3495
3126.00,0.3496
3125.00,0.3497
3124.00,0.3499
3123.00,0.3501
3122.00,0.3503
3121.00,0.3506
3120.00,0.3509
3119.00,0.3512
3118.00,0.3516
3117.00,0.3521
3116.00,0.3526
3115.00,0.3531
3114.00,0.3537
3113.00,0.3544
3112.00,0.3552
3111.00,0.3560
3110.00,0.3570
3109.00,0.3579
3108.00,0.3590
3107.00,0.3601
3106.00,0.3612
3105.00,0.3624
3104.00,0.3636
3103.00,0.3646
3102.00,0.3657
3101.00,0.3667
3100.00,0.3677
3099.00,0.3688
3098.00,0.3700
3097.00,0.3712
3096.00,0.3725
3095.00,0.3739
3094.00,0.3755
3093.00,0.3773
3092.00,0.3793
3091.00,0.3815
3090.00,0.3840
3089.00,0.3867
3088.00,0.3896
3087.00,0.3927
3086.00,0.3958
3085.00,0.3990
3084.00,0.4021
3083.00,0.4051
3082.00,0.4079
3081.00,0.4104
3080.00,0.4128
3079.00,0.4152
3078.00,0.4177
3077.00,0.4204
3076.00,0.4233
3075.00,0.4265
3074.00,0.4299
3073.00,0.4335
3072.00,0.4373
3071.00,0.4413
3070.00,0.4454
3069.00,0.4497
3068.00,0.4542
3067.00,0.4589
3066.00,0.4637
3065.00,0.4686
3064.00,0.4735
3063.00,0.4781
3062.00,0.4825
3061.00,0.4865
3060.00,0.4901
3059.00,0.4932
3058.00,0.4959
3057.00,0.4983
3056.00,0.5004
3055.00,0.5025
3054.00,0.5046
3053.00,0.5068
3052.00,0.5091
3051.00,0.5115
3050.00,0.5140
3049.00,0.5167
3048.00,0.5195
3047.00,0.5226
3046.00,0.5259
3045.00,0.5295
3044.00,0.5332
3043.00,0.5372
3042.00,0.5414
3041.00,0.5458
3040.00,0.5505
3039.00,0.5555
3038.00,0.5609
3037.00,0.5667
3036.00,0.5731
3035.00,0.5801
3034.00,0.5876
3033.00,0.5958
3032.00,0.6045
3031.00,0.6137
3030.00,0.6231
3029.00,0.6324
3028.00,0.6414
3027.00,0.6499
3026.00,0.6578
3025.00,0.6650
3024.00,0.6715
3023.00,0.6776
3022.00,0.6834
3021.00,0.6893
3020.00,0.6954
3019.00,0.7021
3018.00,0.7095
3017.00,0.7176
3016.00,0.7264
3015.00,0.7358
3014.00,0.7456
3013.00,0.7559
3012.00,0.7668
3011.00,0.7782
3010.00,0.7904
3009.00,0.8034
3008.00,0.8170
3007.00,0.8312
3006.00,0.8462
3005.00,0.8620
3004.00,0.8786
3003.00,0.8959
3002.00,0.9140
3001.00,0.9331
3000.00,0.9532
2999.00,0.9747
2998.00,0.9977
2997.00,1.0226
2996.00,1.0496
2995.00,1.0792
2994.00,1.1118
2993.00,1.1477
2992.00,1.1871
2991.00,1.2302
2990.00,1.2779
2989.00,1.3307
2988.00,1.3893
2987.00,1.4541
2986.00,1.5259
2985.00,1.6054
2984.00,1.6937
2983.00,1.7918
2982.00,1.8999
2981.00,2.0177
2980.00,2.1450
2979.00,2.2830
2978.00,2.4349
2977.00,2.6025
2976.00,2.7858
2975.00,2.9855
2974.00,3.2030
2973.00,3.4288
2972.00,3.6371
2971.00,3.8226
2970.00,3.9682
2969.00,3.9837
2968.00,3.8635
2967.00,3.7541
2966.00,3.7084
2965.00,3.7073
2964.00,3.7390
2963.00,3.8203
2962.00,3.9402
2961.00,4.0260
2960.00,4.0964
2959.00,4.2450
2958.00,4.4946
2957.00,4.4386
2956.00,4.1809
2955.00,4.0715
2954.00,4.1009
2953.00,4.1349
2952.00,4.0985
2951.00,4.0424
2950.00,4.0462
2949.00,4.1118
2948.00,4.3104
2947.00,4.6235
2946.00,4.2546
2945.00,4.0459
2944.00,4.0133
2943.00,4.2287
2942.00,4.4257
2941.00,4.4235
2940.00,4.4863
2939.00,4.6156
2938.00,4.5908
2937.00,4.4238
2936.00,4.2095
2935.00,4.0350
2934.00,3.8769
2933.00,3.8103
2932.00,3.8685
2931.00,4.0226
2930.00,4.1435
2929.00,4.0971
2928.00,4.0186
2927.00,3.9675
2926.00,3.9847
2925.00,4.0946
2924.00,4.1853
2923.00,4.1463
2922.00,4.0471
2921.00,3.9937
2920.00,4.0213
2919.00,4.1354
2918.00,4.4011
2917.00,4.7007
2916.00,4.7991
2915.00,4.6339
2914.00,4.3513
2913.00,4.1613
2912.00,4.1667
2911.00,4.4022
2910.00,4.3628
2909.00,4.1051
2908.00,3.9314
2907.00,3.9108
2906.00,3.9496
2905.00,4.0025
2904.00,4.0985
2903.00,4.2626
2902.00,4.3468
2901.00,4.1706
2900.00,4.0785
2899.00,4.1361
2898.00,4.1925
2897.00,4.0850
2896.00,3.9793
2895.00,3.9920
2894.00,4.1033
2893.00,4.3050
2892.00,4.3639
2891.00,4.2770
2890.00,4.1907
2889.00,4.2893
2888.00,4.6123
2887.00,4.6484
2886.00,4.3295
2885.00,4.0368
2884.00,3.9100
2883.00,3.8771
2882.00,3.8795
2881.00,3.9578
2880.00,4.1245
2879.00,4.4273
2878.00,4.7309
2877.00,4.4273
2876.00,4.1874
2875.00,4.1724
2874.00,4.3909
2873.00,4.6390
2872.00,4.4910
2871.00,4.3163
2870.00,4.3044
2869.00,4.4660
2868.00,4.6294
2867.00,4.7997
2866.00,4.6063
2865.00,4.1917
2864.00,4.0431
2863.00,4.1126
2862.00,4.4219
2861.00,4.6722
2860.00,4.6496
2859.00,4.5481
2858.00,4.2746
2857.00,3.9673
2856.00,3.7488
2855.00,3.6436
2854.00,3.6290
2853.00,3.6680
2852.00,3.7242
2851.00,3.7923
2850.00,3.8714
2849.00,4.0053
2848.00,4.0851
2847.00,3.9035
2846.00,3.7251
2845.00,3.6793
2844.00,3.7991
2843.00,4.0585
2842.00,4.3939
2841.00,4.2778
2840.00,3.8650
2839.00,3.5603
2838.00,3.3099
2837.00,3.0701
2836.00,2.8428
2835.00,2.6383
2834.00,2.4566
2833.00,2.2944
2832.00,2.1493
2831.00,2.0198
2830.00,1.9043
2829.00,1.8009
2828.00,1.7087
2827.00,1.6266
2826.00,1.5536
2825.00,1.4882
2824.00,1.4293
2823.00,1.3758
2822.00,1.3268
2821.00,1.2815
2820.00,1.2395
2819.00,1.2005
2818.00,1.1642
2817.00,1.1302
2816.00,1.0983
2815.00,1.0683
2814.00,1.0403
2813.00,1.0141
2812.00,0.9892
2811.00,0.9655
2810.00,0.9427
2809.00,0.9208
2808.00,0.9000
2807.00,0.8800
2806.00,0.8611
2805.00,0.8429
2804.00,0.8255
2803.00,0.8089
2802.00,0.7931
2801.00,0.7779
2800.00,0.7633
2799.00,0.7494
2798.00,0.7361
2797.00,0.7234
2796.00,0.7113
2795.00,0.6995
2794.00,0.6881
2793.00,0.6770
2792.00,0.6662
2791.00,0.6558
2790.00,0.6456
2789.00,0.6356
2788.00,0.6259
2787.00,0.6163
2786.00,0.6069
2785.00,0.5978
2784.00,0.5889
2783.00,0.5804
2782.00,0.5721
2781.00,0.5641
2780.00,0.5565
2779.00,0.5492
2778.00,0.5423
2777.00,0.5358
2776.00,0.5296
2775.00,0.5237
2774.00,0.5182
2773.00,0.5130
2772.00,0.5082
2771.00,0.5037
2770.00,0.4996
2769.00,0.4959
2768.00,0.4925
2767.00,0.4894
2766.00,0.4866
2765.00,0.4842
2764.00,0.4821
2763.00,0.4802
2762.00,0.4785
2761.00,0.4770
2760.00,0.4755
2759.00,0.4742
2758.00,0.4729
2757.00,0.4718
2756.00,0.4708
2755.00,0.4700
2754.00,0.4693
2753.00,0.4688
2752.00,0.4684
2751.00,0.4682
2750.00,0.4682
2749.00,0.4683
2748.00,0.4687
2747.00,0.4693
2746.00,0.4702
2745.00,0.4713
2744.00,0.4726
2743.00,0.4741
2742.00,0.4759
2741.00,0.4779
2740.00,0.4802
2739.00,0.4828
2738.00,0.4859
2737.00,0.4894
2736.00,0.4934
2735.00,0.4976
2734.00,0.5020
2733.00,0.5062
2732.00,0.5101
2731.00,0.5134
2730.00,0.5159
2729.00,0.5175
2728.00,0.5182
2727.00,0.5180
2726.00,0.5170
2725.00,0.5156
2724.00,0.5137
2723.00,0.5116
2722.00,0.5092
2721.00,0.5065
2720.00,0.5036
2719.00,0.5004
2718.00,0.4970
2717.00,0.4934
2716.00,0.4895
2715.00,0.4854
2714.00,0.4812
2713.00,0.4773
2712.00,0.4735
2711.00,0.4701
2710.00,0.4671
2709.00,0.4644
2708.00,0.4620
2707.00,0.4599
2706.00,0.4581
2705.00,0.4566
2704.00,0.4555
2703.00,0.4547
2702.00,0.4542
2701.00,0.4539
2700.00,0.4538
2699.00,0.4540
2698.00,0.4545
2697.00,0.4551
2696.00,0.4561
2695.00,0.4571
2694.00,0.4583
2693.00,0.4595
2692.00,0.4608
2691.00,0.4621
2690.00,0.4633
2689.00,0.4645
2688.00,0.4656
2687.00,0.4666
2686.00,0.4675
2685.00,0.4681
2684.00,0.4686
2683.00,0.4690
2682.00,0.4692
2681.00,0.4693
2680.00,0.4694
2679.00,0.4694
2678.00,0.4693
2677.00,0.4693
2676.00,0.4692
2675.00,0.4691
2674.00,0.4689
2673.00,0.4686
2672.00,0.4681
2671.00,0.4674
2670.00,0.4665
