Created as New Dataset,
cm-1,A
4000.00,0.3834
3999.00,0.3834
3998.00,0.3833
3997.00,0.3832
3996.00,0.3830
3995.00,0.3828
3994.00,0.3827
3993.00,0.3824
3992.00,0.3822
3991.00,0.3819
3990.00,0.3815
3989.00,0.3811
3988.00,0.3807
3987.00,0.3802
3986.00,0.3797
3985.00,0.3792
3984.00,0.3786
3983.00,0.3781
3982.00,0.3776
3981.00,0.3772
3980.00,0.3768
3979.00,0.3764
3978.00,0.3760
3977.00,0.3756
3976.00,0.3753
3975.00,0.3750
3974.00,0.3747
3973.00,0.3745
3972.00,0.3742
3971.00,0.3738
3970.00,0.3734
3969.00,0.3731
3968.00,0.3727
3967.00,0.3723
3966.00,0.3719
3965.00,0.3715
3964.00,0.3710
3963.00,0.3705
3962.00,0.3699
3961.00,0.3694
3960.00,0.3690
3959.00,0.3686
3958.00,0.3682
3957.00,0.3677
3956.00,0.3673
3955.00,0.3668
3954.00,0.3665
3953.00,0.3662
3952.00,0.3659
3951.00,0.3655
3950.00,0.3652
3949.00,0.3648
3948.00,0.3645
3947.00,0.3642
3946.00,0.3639
3945.00,0.3637
3944.00,0.3636
3943.00,0.3634
3942.00,0.3631
3941.00,0.3629
3940.00,0.3628
3939.00,0.3627
3938.00,0.3625
3937.00,0.3624
3936.00,0.3622
3935.00,0.3621
3934.00,0.3621
3933.00,0.3620
3932.00,0.3619
3931.00,0.3619
3930.00,0.3618
3929.00,0.3617
3928.00,0.3617
3927.00,0.3617
3926.00,0.3617
3925.00,0.3617
3924.00,0.3616
3923.00,0.3615
3922.00,0.3615
3921.00,0.3615
3920.00,0.3614
3919.00,0.3614
3918.00,0.3613
3917.00,0.3612
3916.00,0.3610
3915.00,0.3609
3914.00,0.3608
3913.00,0.3607
3912.00,0.3606
3911.00,0.3604
3910.00,0.3603
3909.00,0.3602
3908.00,0.3601
3907.00,0.3600
3906.00,0.3599
3905.00,0.3597
3904.00,0.3596
3903.00,0.3594
3902.00,0.3593
3901.00,0.3593
3900.00,0.3592
3899.00,0.3591
3898.00,0.3591
3897.00,0.3590
3896.00,0.3590
3895.00,0.3590
3894.00,0.3589
3893.00,0.3588
3892.00,0.3586
3891.00,0.3584
3890.00,0.3582
3889.00,0.3580
3888.00,0.3578
3887.00,0.3577
3886.00,0.3575
3885.00,0.3573
3884.00,0.3572
3883.00,0.3572
3882.00,0.3572
3881.00,0.3572
3880.00,0.3571
3879.00,0.3569
3878.00,0.3569
3877.00,0.3569
3876.00,0.3569
3875.00,0.3568
3874.00,0.3567
3873.00,0.3565
3872.00,0.3564
3871.00,0.3563
3870.00,0.3562
3869.00,0.3560
3868.00,0.3558
3867.00,0.3559
3866.00,0.3559
3865.00,0.3558
3864.00,0.3556
3863.00,0.3554
3862.00,0.3552
3861.00,0.3551
3860.00,0.3551
3859.00,0.3550
3858.00,0.3550
3857.00,0.3549
3856.00,0.3547
3855.00,0.3546
3854.00,0.3545
3853.00,0.3545
3852.00,0.3545
3851.00,0.3544
3850.00,0.3544
3849.00,0.3543
3848.00,0.3541
3847.00,0.3542
3846.00,0.3543
3845.00,0.3545
3844.00,0.3545
3843.00,0.3544
3842.00,0.3543
3841.00,0.3542
3840.00,0.3541
3839.00,0.3541
3838.00,0.3540
3837.00,0.3538
3836.00,0.3536
3835.00,0.3534
3834.00,0.3532
3833.00,0.3529
3832.00,0.3528
3831.00,0.3527
3830.00,0.3526
3829.00,0.3524
3828.00,0.3523
3827.00,0.3521
3826.00,0.3519
3825.00,0.3518
3824.00,0.3517
3823.00,0.3516
3822.00,0.3515
3821.00,0.3512
3820.00,0.3510
3819.00,0.3508
3818.00,0.3507
3817.00,0.3506
3816.00,0.3503
3815.00,0.3499
3814.00,0.3497
3813.00,0.3495
3812.00,0.3494
3811.00,0.3493
3810.00,0.3491
3809.00,0.3490
3808.00,0.3489
3807.00,0.3487
3806.00,0.3485
3805.00,0.3483
3804.00,0.3483
3803.00,0.3483
3802.00,0.3482
3801.00,0.3479
3800.00,0.3477
3799.00,0.3475
3798.00,0.3474
3797.00,0.3472
3796.00,0.3470
3795.00,0.3468
3794.00,0.3467
3793.00,0.3466
3792.00,0.3465
3791.00,0.3463
3790.00,0.3462
3789.00,0.3461
3788.00,0.3460
3787.00,0.3459
3786.00,0.3458
3785.00,0.3457
3784.00,0.3456
3783.00,0.3456
3782.00,0.3456
3781.00,0.3456
3780.00,0.3456
3779.00,0.3456
3778.00,0.3455
3777.00,0.3454
3776.00,0.3455
3775.00,0.3455
3774.00,0.3455
3773.00,0.3455
3772.00,0.3456
3771.00,0.3456
3770.00,0.3456
3769.00,0.3456
3768.00,0.3456
3767.00,0.3457
3766.00,0.3457
3765.00,0.3456
3764.00,0.3455
3763.00,0.3454
3762.00,0.3454
3761.00,0.3452
3760.00,0.3450
3759.00,0.3448
3758.00,0.3446
3757.00,0.3445
3756.00,0.3443
3755.00,0.3441
3754.00,0.3439
3753.00,0.3437
3752.00,0.3434
3751.00,0.3431
3750.00,0.3430
3749.00,0.3428
3748.00,0.3427
3747.00,0.3426
3746.00,0.3426
3745.00,0.3426
3744.00,0.3425
3743.00,0.3424
3742.00,0.3424
3741.00,0.3425
3740.00,0.3424
3739.00,0.3423
3738.00,0.3423
3737.00,0.3423
3736.00,0.3422
3735.00,0.3421
3734.00,0.3420
3733.00,0.3420
3732.00,0.3419
3731.00,0.3418
3730.00,0.3416
3729.00,0.3415
3728.00,0.3415
3727.00,0.3414
3726.00,0.3413
3725.00,0.3412
3724.00,0.3411
3723.00,0.3411
3722.00,0.3411
3721.00,0.3410
3720.00,0.3409
3719.00,0.3409
3718.00,0.3408
3717.00,0.3408
3716.00,0.3407
3715.00,0.3406
3714.00,0.3406
3713.00,0.3406
3712.00,0.3406
3711.00,0.3407
3710.00,0.3407
3709.00,0.3408
3708.00,0.3409
3707.00,0.3409
3706.00,0.3409
3705.00,0.3410
3704.00,0.3411
3703.00,0.3412
3702.00,0.3413
3701.00,0.3414
3700.00,0.3415
3699.00,0.3417
3698.00,0.3419
3697.00,0.3421
3696.00,0.3423
3695.00,0.3424
3694.00,0.3426
3693.00,0.3427
3692.00,0.3428
3691.00,0.3429
3690.00,0.3430
3689.00,0.3431
3688.00,0.3432
3687.00,0.3433
3686.00,0.3434
3685.00,0.3435
3684.00,0.3436
3683.00,0.3437
3682.00,0.3438
3681.00,0.3438
3680.00,0.3438
3679.00,0.3437
3678.00,0.3436
3677.00,0.3436
3676.00,0.3436
3675.00,0.3435
3674.00,0.3434
3673.00,0.3434
3672.00,0.3434
3671.00,0.3435
3670.00,0.3435
3669.00,0.3435
3668.00,0.3437
3667.00,0.3440
3666.00,0.3442
3665.00,0.3444
3664.00,0.3446
3663.00,0.3449
3662.00,0.3452
3661.00,0.3455
3660.00,0.3458
3659.00,0.3461
3658.00,0.3464
3657.00,0.3468
3656.00,0.3471
3655.00,0.3475
3654.00,0.3478
3653.00,0.3481
3652.00,0.3485
3651.00,0.3489
3650.00,0.3493
3649.00,0.3498
3648.00,0.3504
3647.00,0.3509
3646.00,0.3512
3645.00,0.3516
3644.00,0.3520
3643.00,0.3525
3642.00,0.3531
3641.00,0.3539
3640.00,0.3548
3639.00,0.3557
3638.00,0.3567
3637.00,0.3576
3636.00,0.3587
3635.00,0.3597
3634.00,0.3608
3633.00,0.3618
3632.00,0.3632
3631.00,0.3652
3630.00,0.3682
3629.00,0.3720
3628.00,0.3761
3627.00,0.3795
3626.00,0.3822
3625.00,0.3837
3624.00,0.3842
3623.00,0.3835
3622.00,0.3819
3621.00,0.3794
3620.00,0.3761
3619.00,0.3725
3618.00,0.3693
3617.00,0.3666
3616.00,0.3646
3615.00,0.3631
3614.00,0.3620
3613.00,0.3613
3612.00,0.3609
3611.00,0.3608
3610.00,0.3608
3609.00,0.3608
3608.00,0.3609
3607.00,0.3609
3606.00,0.3609
3605.00,0.3608
3604.00,0.3606
3603.00,0.3603
3602.00,0.3598
3601.00,0.3592
3600.00,0.3585
3599.00,0.3577
3598.00,0.3568
3597.00,0.3559
3596.00,0.3550
3595.00,0.3541
3594.00,0.3532
3593.00,0.3525
3592.00,0.3518
3591.00,0.3513
3590.00,0.3508
3589.00,0.3503
3588.00,0.3499
3587.00,0.3496
3586.00,0.3493
3585.00,0.3491
3584.00,0.3488
3583.00,0.3484
3582.00,0.3480
3581.00,0.3475
3580.00,0.3470
3579.00,0.3465
3578.00,0.3461
3577.00,0.3459
3576.00,0.3456
3575.00,0.3455
3574.00,0.3453
3573.00,0.3452
3572.00,0.3452
3571.00,0.3451
3570.00,0.3450
3569.00,0.3450
3568.00,0.3450
3567.00,0.3451
3566.00,0.3452
3565.00,0.3453
3564.00,0.3454
3563.00,0.3455
3562.00,0.3456
3561.00,0.3457
3560.00,0.3458
3559.00,0.3460
3558.00,0.3462
3557.00,0.3465
3556.00,0.3468
3555.00,0.3471
3554.00,0.3475
3553.00,0.3479
3552.00,0.3483
3551.00,0.3487
3550.00,0.3491
3549.00,0.3495
3548.00,0.3499
3547.00,0.3504
3546.00,0.3509
3545.00,0.3516
3544.00,0.3522
3543.00,0.3529
3542.00,0.3535
3541.00,0.3541
3540.00,0.3547
3539.00,0.3554
3538.00,0.3561
3537.00,0.3567
3536.00,0.3573
3535.00,0.3578
3534.00,0.3583
3533.00,0.3589
3532.00,0.3595
3531.00,0.3601
3530.00,0.3607
3529.00,0.3613
3528.00,0.3619
3527.00,0.3626
3526.00,0.3634
3525.00,0.3641
3524.00,0.3649
3523.00,0.3657
3522.00,0.3664
3521.00,0.3671
3520.00,0.3679
3519.00,0.3687
3518.00,0.3695
3517.00,0.3703
3516.00,0.3711
3515.00,0.3720
3514.00,0.3729
3513.00,0.3738
3512.00,0.3747
3511.00,0.3756
3510.00,0.3765
3509.00,0.3775
3508.00,0.3785
3507.00,0.3794
3506.00,0.3804
3505.00,0.3814
3504.00,0.3825
3503.00,0.3836
3502.00,0.3846
3501.00,0.3857
3500.00,0.3868
3499.00,0.3878
3498.00,0.3889
3497.00,0.3900
3496.00,0.3910
3495.00,0.3921
3494.00,0.3931
3493.00,0.3943
3492.00,0.3954
3491.00,0.3966
3490.00,0.3978
3489.00,0.3990
3488.00,0.4002
3487.00,0.4014
3486.00,0.4026
3485.00,0.4038
3484.00,0.4050
3483.00,0.4063
3482.00,0.4076
3481.00,0.4090
3480.00,0.4104
3479.00,0.4117
3478.00,0.4131
3477.00,0.4144
3476.00,0.4158
3475.00,0.4172
3474.00,0.4186
3473.00,0.4201
3472.00,0.4216
3471.00,0.4231
3470.00,0.4245
3469.00,0.4260
3468.00,0.4275
3467.00,0.4289
3466.00,0.4305
3465.00,0.4321
3464.00,0.4338
3463.00,0.4355
3462.00,0.4372
3461.00,0.4389
3460.00,0.4407
3459.00,0.4425
3458.00,0.4443
3457.00,0.4461
3456.00,0.4479
3455.00,0.4498
3454.00,0.4518
3453.00,0.4539
3452.00,0.4560
3451.00,0.4583
3450.00,0.4606
3449.00,0.4630
3448.00,0.4656
3447.00,0.4684
3446.00,0.4712
3445.00,0.4741
3444.00,0.4771
3443.00,0.4802
3442.00,0.4833
3441.00,0.4864
3440.00,0.4894
3439.00,0.4923
3438.00,0.4950
3437.00,0.4976
3436.00,0.5000
3435.00,0.5023
3434.00,0.5044
3433.00,0.5063
3432.00,0.5082
3431.00,0.5099
3430.00,0.5116
3429.00,0.5133
3428.00,0.5150
3427.00,0.5165
3426.00,0.5180
3425.00,0.5196
3424.00,0.5211
3423.00,0.5227
3422.00,0.5243
3421.00,0.5260
3420.00,0.5277
3419.00,0.5295
3418.00,0.5313
3417.00,0.5330
3416.00,0.5348
3415.00,0.5365
3414.00,0.5383
3413.00,0.5401
3412.00,0.5419
3411.00,0.5436
3410.00,0.5454
3409.00,0.5472
3408.00,0.5491
3407.00,0.5510
3406.00,0.5528
3405.00,0.5545
3404.00,0.5562
3403.00,0.5580
3402.00,0.5597
3401.00,0.5615
3400.00,0.5633
3399.00,0.5649
3398.00,0.5664
3397.00,0.5679
3396.00,0.5694
3395.00,0.5709
3394.00,0.5723
3393.00,0.5738
3392.00,0.5753
3391.00,0.5767
3390.00,0.5780
3389.00,0.5793
3388.00,0.5805
3387.00,0.5818
3386.00,0.5831
3385.00,0.5844
3384.00,0.5857
3383.00,0.5869
3382.00,0.5882
3381.00,0.5895
3380.00,0.5908
3379.00,0.5920
3378.00,0.5932
3377.00,0.5944
3376.00,0.5956
3375.00,0.5968
3374.00,0.5980
3373.00,0.5992
3372.00,0.6004
3371.00,0.6015
3370.00,0.6027
3369.00,0.6039
3368.00,0.6051
3367.00,0.6063
3366.00,0.6074
3365.00,0.6085
3364.00,0.6096
3363.00,0.6106
3362.00,0.6117
3361.00,0.6128
3360.00,0.6140
3359.00,0.6151
3358.00,0.6162
3357.00,0.6174
3356.00,0.6184
3355.00,0.6195
3354.00,0.6205
3353.00,0.6216
3352.00,0.6227
3351.00,0.6237
3350.00,0.6247
3349.00,0.6255
3348.00,0.6264
3347.00,0.6273
3346.00,0.6281
3345.00,0.6288
3344.00,0.6294
3343.00,0.6299
3342.00,0.6304
3341.00,0.6310
3340.00,0.6315
3339.00,0.6320
3338.00,0.6323
3337.00,0.6325
3336.00,0.6326
3335.00,0.6326
3334.00,0.6326
3333.00,0.6325
3332.00,0.6324
3331.00,0.6322
3330.00,0.6319
3329.00,0.6315
3328.00,0.6310
3327.00,0.6305
3326.00,0.6299
3325.00,0.6292
3324.00,0.6284
3323.00,0.6277
3322.00,0.6270
3321.00,0.6264
3320.00,0.6257
3319.00,0.6248
3318.00,0.6239
3317.00,0.6230
3316.00,0.6221
3315.00,0.6212
3314.00,0.6204
3313.00,0.6195
3312.00,0.6187
3311.00,0.6179
3310.00,0.6172
3309.00,0.6164
3308.00,0.6156
3307.00,0.6149
3306.00,0.6142
3305.00,0.6135
3304.00,0.6129
3303.00,0.6122
3302.00,0.6115
3301.00,0.6109
3300.00,0.6104
3299.00,0.6100
3298.00,0.6097
3297.00,0.6095
3296.00,0.6092
3295.00,0.6089
3294.00,0.6087
3293.00,0.6085
3292.00,0.6084
3291.00,0.6083
3290.00,0.6081
3289.00,0.6080
3288.00,0.6079
3287.00,0.6078
3286.00,0.6078
3285.00,0.6079
3284.00,0.6080
3283.00,0.6081
3282.00,0.6082
3281.00,0.6084
3280.00,0.6086
3279.00,0.6086
3278.00,0.6087
3277.00,0.6087
3276.00,0.6088
3275.00,0.6090
3274.00,0.6092
3273.00,0.6094
3272.00,0.6095
3271.00,0.6096
3270.00,0.6097
3269.00,0.6098
3268.00,0.6100
3267.00,0.6101
3266.00,0.6102
3265.00,0.6103
3264.00,0.6103
3263.00,0.6103
3262.00,0.6102
3261.00,0.6103
3260.00,0.6102
3259.00,0.6101
3258.00,0.6099
3257.00,0.6096
3256.00,0.6093
3255.00,0.6089
3254.00,0.6086
3253.00,0.6082
3252.00,0.6078
3251.00,0.6072
3250.00,0.6067
3249.00,0.6060
3248.00,0.6053
3247.00,0.6046
3246.00,0.6037
3245.00,0.6028
3244.00,0.6018
3243.00,0.6008
3242.00,0.5997
3241.00,0.5987
3240.00,0.5976
3239.00,0.5964
3238.00,0.5952
3237.00,0.5939
3236.00,0.5926
3235.00,0.5913
3234.00,0.5901
3233.00,0.5888
3232.00,0.5876
3231.00,0.5863
3230.00,0.5850
3229.00,0.5836
3228.00,0.5822
3227.00,0.5807
3226.00,0.5792
3225.00,0.5777
3224.00,0.5762
3223.00,0.5747
3222.00,0.5731
3221.00,0.5716
3220.00,0.5702
3219.00,0.5687
3218.00,0.5672
3217.00,0.5656
3216.00,0.5641
3215.00,0.5627
3214.00,0.5613
3213.00,0.5599
3212.00,0.5584
3211.00,0.5570
3210.00,0.5555
3209.00,0.5541
3208.00,0.5526
3207.00,0.5511
3206.00,0.5496
3205.00,0.5481
3204.00,0.5467
3203.00,0.5453
3202.00,0.5439
3201.00,0.5426
3200.00,0.5413
3199.00,0.5400
3198.00,0.5386
3197.00,0.5372
3196.00,0.5357
3195.00,0.5342
3194.00,0.5327
3193.00,0.5313
3192.00,0.5298
3191.00,0.5283
3190.00,0.5268
3189.00,0.5253
3188.00,0.5237
3187.00,0.5222
3186.00,0.5208
3185.00,0.5193
3184.00,0.5178
3183.00,0.5163
3182.00,0.5148
3181.00,0.5132
3180.00,0.5116
3179.00,0.5100
3178.00,0.5084
3177.00,0.5069
3176.00,0.5053
3175.00,0.5038
3174.00,0.5022
3173.00,0.5006
3172.00,0.4991
3171.00,0.4976
3170.00,0.4962
3169.00,0.4948
3168.00,0.4934
3167.00,0.4920
3166.00,0.4907
3165.00,0.4894
3164.00,0.4881
3163.00,0.4869
3162.00,0.4856
3161.00,0.4844
3160.00,0.4832
3159.00,0.4820
3158.00,0.4809
3157.00,0.4798
3156.00,0.4787
3155.00,0.4777
3154.00,0.4767
3153.00,0.4758
3152.00,0.4749
3151.00,0.4739
3150.00,0.4730
3149.00,0.4721
3148.00,0.4713
3147.00,0.4704
3146.00,0.4696
3145.00,0.4688
3144.00,0.4679
3143.00,0.4671
3142.00,0.4663
3141.00,0.4655
3140.00,0.4647
3139.00,0.4639
3138.00,0.4632
3137.00,0.4625
3136.00,0.4618
3135.00,0.4612
3134.00,0.4605
3133.00,0.4599
3132.00,0.4593
3131.00,0.4587
3130.00,0.4582
3129.00,0.4577
3128.00,0.4572
3127.00,0.4567
3126.00,0.4563
3125.00,0.4560
3124.00,0.4557
3123.00,0.4555
3122.00,0.4554
3121.00,0.4553
3120.00,0.4552
3119.00,0.4552
3118.00,0.4552
3117.00,0.4553
3116.00,0.4554
3115.00,0.4556
3114.00,0.4559
3113.00,0.4563
3112.00,0.4567
3111.00,0.4570
3110.00,0.4575
3109.00,0.4579
3108.00,0.4585
3107.00,0.4591
3106.00,0.4597
3105.00,0.4604
3104.00,0.4611
3103.00,0.4618
3102.00,0.4626
3101.00,0.4634
3100.00,0.4642
3099.00,0.4650
3098.00,0.4658
3097.00,0.4666
3096.00,0.4674
3095.00,0.4682
3094.00,0.4690
3093.00,0.4699
3092.00,0.4708
3091.00,0.4717
3090.00,0.4728
3089.00,0.4738
3088.00,0.4749
3087.00,0.4760
3086.00,0.4772
3085.00,0.4784
3084.00,0.4797
3083.00,0.4811
3082.00,0.4827
3081.00,0.4844
3080.00,0.4862
3079.00,0.4880
3078.00,0.4900
3077.00,0.4919
3076.00,0.4940
3075.00,0.4961
3074.00,0.4985
3073.00,0.5010
3072.00,0.5037
3071.00,0.5064
3070.00,0.5092
3069.00,0.5121
3068.00,0.5150
3067.00,0.5181
3066.00,0.5214
3065.00,0.5249
3064.00,0.5285
3063.00,0.5321
3062.00,0.5358
3061.00,0.5393
3060.00,0.5428
3059.00,0.5462
3058.00,0.5497
3057.00,0.5531
3056.00,0.5566
3055.00,0.5599
3054.00,0.5631
3053.00,0.5661
3052.00,0.5690
3051.00,0.5718
3050.00,0.5746
3049.00,0.5774
3048.00,0.5803
3047.00,0.5832
3046.00,0.5862
3045.00,0.5895
3044.00,0.5929
3043.00,0.5966
3042.00,0.6004
3041.00,0.6045
3040.00,0.6087
3039.00,0.6132
3038.00,0.6180
3037.00,0.6232
3036.00,0.6285
3035.00,0.6340
3034.00,0.6397
3033.00,0.6454
3032.00,0.6513
3031.00,0.6573
3030.00,0.6634
3029.00,0.6695
3028.00,0.6756
3027.00,0.6815
3026.00,0.6875
3025.00,0.6936
3024.00,0.6998
3023.00,0.7062
3022.00,0.7127
3021.00,0.7195
3020.00,0.7266
3019.00,0.7338
3018.00,0.7414
3017.00,0.7495
3016.00,0.7580
3015.00,0.7671
3014.00,0.7767
3013.00,0.7868
3012.00,0.7975
3011.00,0.8087
3010.00,0.8205
3009.00,0.8329
3008.00,0.8459
3007.00,0.8595
3006.00,0.8741
3005.00,0.8896
3004.00,0.9061
3003.00,0.9234
3002.00,0.9416
3001.00,0.9608
3000.00,0.9812
2999.00,1.0029
2998.00,1.0259
2997.00,1.0504
2996.00,1.0766
2995.00,1.1046
2994.00,1.1346
2993.00,1.1668
2992.00,1.2012
2991.00,1.2384
2990.00,1.2786
2989.00,1.3221
2988.00,1.3691
2987.00,1.4203
2986.00,1.4763
2985.00,1.5380
2984.00,1.6060
2983.00,1.6812
2982.00,1.7642
2981.00,1.8552
2980.00,1.9537
2979.00,2.0600
2978.00,2.1758
2977.00,2.3020
2976.00,2.4381
2975.00,2.5819
2974.00,2.7315
2973.00,2.8840
2972.00,3.0341
2971.00,3.1783
2970.00,3.3166
2969.00,3.4482
2968.00,3.5696
2967.00,3.6773
2966.00,3.7726
2965.00,3.8732
2964.00,3.9977
2963.00,4.1213
2962.00,4.2180
2961.00,4.1732
2960.00,4.0230
2959.00,3.9077
2958.00,3.8629
2957.00,3.8910
2956.00,3.9473
2955.00,3.9850
2954.00,3.9432
2953.00,3.8880
2952.00,3.8712
2951.00,3.8753
2950.00,3.8328
2949.00,3.7479
2948.00,3.6714
2947.00,3.6196
2946.00,3.6075
2945.00,3.6386
2944.00,3.7093
2943.00,3.8265
2942.00,3.9843
2941.00,4.1029
2940.00,4.0975
2939.00,4.0874
2938.00,4.1628
2937.00,4.3521
2936.00,4.4114
2935.00,4.2087
2934.00,4.0407
2933.00,3.9743
2932.00,3.9842
2931.00,4.0922
2930.00,4.4050
2929.00,4.2760
2928.00,4.0317
2927.00,3.8904
2926.00,3.9412
2925.00,3.9833
2924.00,3.9231
2923.00,3.8813
2922.00,3.8809
2921.00,3.9301
2920.00,3.9722
2919.00,3.9528
2918.00,3.9880
2917.00,4.2023
2916.00,4.3050
2915.00,4.1425
2914.00,4.0106
2913.00,4.0902
2912.00,4.4045
2911.00,4.6163
2910.00,4.3079
2909.00,4.1125
2908.00,4.1058
2907.00,4.2088
2906.00,4.1163
2905.00,4.0197
2904.00,3.9889
2903.00,3.9196
2902.00,3.8607
2901.00,3.8715
2900.00,3.9765
2899.00,4.0598
2898.00,4.0465
2897.00,4.0466
2896.00,4.1219
2895.00,4.2746
2894.00,4.3949
2893.00,4.3955
2892.00,4.3944
2891.00,4.5047
2890.00,4.5178
2889.00,4.1468
2888.00,3.8252
2887.00,3.6442
2886.00,3.5823
2885.00,3.5880
2884.00,3.6255
2883.00,3.6902
2882.00,3.7937
2881.00,3.9326
2880.00,4.0441
2879.00,4.0625
2878.00,4.0455
2877.00,4.0706
2876.00,4.1752
2875.00,4.3346
2874.00,4.2360
2873.00,4.0672
2872.00,4.0235
2871.00,4.2189
2870.00,4.5039
2869.00,4.3031
2868.00,4.0930
2867.00,4.0274
2866.00,4.0317
2865.00,3.9536
2864.00,3.8792
2863.00,3.8974
2862.00,3.9763
2861.00,3.9933
2860.00,3.9488
2859.00,3.9245
2858.00,3.9136
2857.00,3.9021
2856.00,3.9154
2855.00,3.9580
2854.00,3.9687
2853.00,3.9579
2852.00,3.9638
2851.00,3.9604
2850.00,3.9400
2849.00,3.9714
2848.00,4.1126
2847.00,4.1469
2846.00,4.1020
2845.00,4.1521
2844.00,4.0331
2843.00,3.7381
2842.00,3.4890
2841.00,3.3430
2840.00,3.2183
2839.00,3.0764
2838.00,2.9148
2837.00,2.7346
2836.00,2.5574
2835.00,2.3980
2834.00,2.2586
2833.00,2.1357
2832.00,2.0257
2831.00,1.9266
2830.00,1.8369
2829.00,1.7550
2828.00,1.6802
2827.00,1.6123
2826.00,1.5509
2825.00,1.4950
2824.00,1.4436
2823.00,1.3963
2822.00,1.3528
2821.00,1.3127
2820.00,1.2758
2819.00,1.2418
2818.00,1.2102
2817.00,1.1807
2816.00,1.1530
2815.00,1.1269
2814.00,1.1021
2813.00,1.0783
2812.00,1.0556
2811.00,1.0338
2810.00,1.0129
2809.00,0.9928
2808.00,0.9736
2807.00,0.9551
2806.00,0.9374
2805.00,0.9202
2804.00,0.9033
2803.00,0.8869
2802.00,0.8709
2801.00,0.8556
2800.00,0.8408
2799.00,0.8265
2798.00,0.8127
2797.00,0.7995
2796.00,0.7869
2795.00,0.7748
2794.00,0.7635
2793.00,0.7527
2792.00,0.7425
2791.00,0.7328
2790.00,0.7236
2789.00,0.7147
2788.00,0.7061
2787.00,0.6977
2786.00,0.6893
2785.00,0.6811
2784.00,0.6729
2783.00,0.6647
2782.00,0.6567
2781.00,0.6487
2780.00,0.6409
2779.00,0.6333
2778.00,0.6259
2777.00,0.6187
2776.00,0.6119
2775.00,0.6054
2774.00,0.5994
2773.00,0.5938
2772.00,0.5887
2771.00,0.5839
2770.00,0.5796
2769.00,0.5756
2768.00,0.5721
2767.00,0.5690
2766.00,0.5662
2765.00,0.5637
2764.00,0.5615
2763.00,0.5596
2762.00,0.5579
2761.00,0.5565
2760.00,0.5553
2759.00,0.5543
2758.00,0.5536
2757.00,0.5530
2756.00,0.5527
2755.00,0.5525
2754.00,0.5525
2753.00,0.5528
2752.00,0.5531
2751.00,0.5537
2750.00,0.5544
2749.00,0.5555
2748.00,0.5567
2747.00,0.5580
2746.00,0.5595
2745.00,0.5611
2744.00,0.5629
2743.00,0.5649
2742.00,0.5672
2741.00,0.5697
2740.00,0.5726
2739.00,0.5759
2738.00,0.5796
2737.00,0.5840
2736.00,0.5887
2735.00,0.5939
2734.00,0.5991
2733.00,0.6039
2732.00,0.6078
2731.00,0.6100
2730.00,0.6101
2729.00,0.6080
2728.00,0.6040
2727.00,0.5988
2726.00,0.5929
2725.00,0.5869
2724.00,0.5814
2723.00,0.5764
2722.00,0.5723
2721.00,0.5689
2720.00,0.5662
2719.00,0.5639
2718.00,0.5620
2717.00,0.5601
2716.00,0.5581
2715.00,0.5560
2714.00,0.5537
2713.00,0.5511
2712.00,0.5484
2711.00,0.5457
2710.00,0.5431
2709.00,0.5407
2708.00,0.5384
2707.00,0.5365
2706.00,0.5348
2705.00,0.5333
2704.00,0.5321
2703.00,0.5311
2702.00,0.5303
2701.00,0.5297
2700.00,0.5294
2699.00,0.5293
2698.00,0.5295
2697.00,0.5299
2696.00,0.5307
2695.00,0.5317
2694.00,0.5330
2693.00,0.5344
2692.00,0.5358
2691.00,0.5373
2690.00,0.5387
2689.00,0.5401
2688.00,0.5413
2687.00,0.5424
2686.00,0.5434
2685.00,0.5442
2684.00,0.5447
2683.00,0.5452
2682.00,0.5456
2681.00,0.5460
2680.00,0.5465
2679.00,0.5469
2678.00,0.5474
2677.00,0.5479
2676.00,0.5484
2675.00,0.5489
2674.00,0.5493
2673.00,0.5496
2672.00,0.5497
2671.00,0.5495
2670.00,0.5488
