Created as New Dataset,
cm-1,A
4000.00,0.3844
3999.00,0.3843
3998.00,0.3843
3997.00,0.3843
3996.00,0.3842
3995.00,0.3841
3994.00,0.3839
3993.00,0.3836
3992.00,0.3834
3991.00,0.3831
3990.00,0.3827
3989.00,0.3823
3988.00,0.3819
3987.00,0.3815
3986.00,0.3811
3985.00,0.3807
3984.00,0.3803
3983.00,0.3799
3982.00,0.3795
3981.00,0.3790
3980.00,0.3785
3979.00,0.3780
3978.00,0.3776
3977.00,0.3771
3976.00,0.3767
3975.00,0.3764
3974.00,0.3759
3973.00,0.3755
3972.00,0.3752
3971.00,0.3748
3970.00,0.3745
3969.00,0.3741
3968.00,0.3737
3967.00,0.3733
3966.00,0.3728
3965.00,0.3723
3964.00,0.3718
3963.00,0.3712
3962.00,0.3707
3961.00,0.3702
3960.00,0.3696
3959.00,0.3692
3958.00,0.3688
3957.00,0.3684
3956.00,0.3681
3955.00,0.3678
3954.00,0.3675
3953.00,0.3673
3952.00,0.3670
3951.00,0.3668
3950.00,0.3665
3949.00,0.3663
3948.00,0.3660
3947.00,0.3658
3946.00,0.3656
3945.00,0.3654
3944.00,0.3652
3943.00,0.3650
3942.00,0.3647
3941.00,0.3645
3940.00,0.3643
3939.00,0.3641
3938.00,0.3639
3937.00,0.3638
3936.00,0.3638
3935.00,0.3637
3934.00,0.3637
3933.00,0.3636
3932.00,0.3636
3931.00,0.3635
3930.00,0.3635
3929.00,0.3635
3928.00,0.3635
3927.00,0.3635
3926.00,0.3635
3925.00,0.3634
3924.00,0.3634
3923.00,0.3634
3922.00,0.3635
3921.00,0.3635
3920.00,0.3635
3919.00,0.3635
3918.00,0.3635
3917.00,0.3634
3916.00,0.3633
3915.00,0.3633
3914.00,0.3632
3913.00,0.3631
3912.00,0.3630
3911.00,0.3629
3910.00,0.3628
3909.00,0.3627
3908.00,0.3628
3907.00,0.3628
3906.00,0.3628
3905.00,0.3627
3904.00,0.3626
3903.00,0.3625
3902.00,0.3624
3901.00,0.3623
3900.00,0.3622
3899.00,0.3622
3898.00,0.3621
3897.00,0.3619
3896.00,0.3617
3895.00,0.3614
3894.00,0.3611
3893.00,0.3609
3892.00,0.3607
3891.00,0.3606
3890.00,0.3605
3889.00,0.3604
3888.00,0.3602
3887.00,0.3601
3886.00,0.3600
3885.00,0.3600
3884.00,0.3599
3883.00,0.3597
3882.00,0.3595
3881.00,0.3594
3880.00,0.3593
3879.00,0.3592
3878.00,0.3591
3877.00,0.3590
3876.00,0.3590
3875.00,0.3591
3874.00,0.3591
3873.00,0.3591
3872.00,0.3590
3871.00,0.3589
3870.00,0.3589
3869.00,0.3589
3868.00,0.3589
3867.00,0.3587
3866.00,0.3585
3865.00,0.3584
3864.00,0.3583
3863.00,0.3580
3862.00,0.3577
3861.00,0.3574
3860.00,0.3572
3859.00,0.3571
3858.00,0.3571
3857.00,0.3572
3856.00,0.3573
3855.00,0.3572
3854.00,0.3572
3853.00,0.3572
3852.00,0.3572
3851.00,0.3572
3850.00,0.3570
3849.00,0.3568
3848.00,0.3566
3847.00,0.3565
3846.00,0.3563
3845.00,0.3561
3844.00,0.3560
3843.00,0.3560
3842.00,0.3561
3841.00,0.3561
3840.00,0.3562
3839.00,0.3563
3838.00,0.3563
3837.00,0.3563
3836.00,0.3562
3835.00,0.3560
3834.00,0.3558
3833.00,0.3556
3832.00,0.3554
3831.00,0.3551
3830.00,0.3548
3829.00,0.3545
3828.00,0.3543
3827.00,0.3542
3826.00,0.3542
3825.00,0.3542
3824.00,0.3542
3823.00,0.3541
3822.00,0.3541
3821.00,0.3541
3820.00,0.3540
3819.00,0.3538
3818.00,0.3535
3817.00,0.3532
3816.00,0.3529
3815.00,0.3526
3814.00,0.3523
3813.00,0.3519
3812.00,0.3517
3811.00,0.3515
3810.00,0.3513
3809.00,0.3511
3808.00,0.3510
3807.00,0.3509
3806.00,0.3508
3805.00,0.3508
3804.00,0.3507
3803.00,0.3506
3802.00,0.3505
3801.00,0.3504
3800.00,0.3502
3799.00,0.3499
3798.00,0.3496
3797.00,0.3494
3796.00,0.3492
3795.00,0.3490
3794.00,0.3487
3793.00,0.3484
3792.00,0.3481
3791.00,0.3479
3790.00,0.3477
3789.00,0.3476
3788.00,0.3474
3787.00,0.3473
3786.00,0.3472
3785.00,0.3472
3784.00,0.3472
3783.00,0.3471
3782.00,0.3470
3781.00,0.3469
3780.00,0.3469
3779.00,0.3469
3778.00,0.3469
3777.00,0.3469
3776.00,0.3468
3775.00,0.3467
3774.00,0.3467
3773.00,0.3466
3772.00,0.3466
3771.00,0.3466
3770.00,0.3466
3769.00,0.3466
3768.00,0.3466
3767.00,0.3465
3766.00,0.3465
3765.00,0.3465
3764.00,0.3465
3763.00,0.3464
3762.00,0.3463
3761.00,0.3463
3760.00,0.3463
3759.00,0.3462
3758.00,0.3462
3757.00,0.3461
3756.00,0.3461
3755.00,0.3461
3754.00,0.3462
3753.00,0.3462
3752.00,0.3462
3751.00,0.3462
3750.00,0.3462
3749.00,0.3463
3748.00,0.3463
3747.00,0.3462
3746.00,0.3460
3745.00,0.3458
3744.00,0.3458
3743.00,0.3456
3742.00,0.3452
3741.00,0.3448
3740.00,0.3446
3739.00,0.3445
3738.00,0.3445
3737.00,0.3444
3736.00,0.3443
3735.00,0.3441
3734.00,0.3439
3733.00,0.3437
3732.00,0.3435
3731.00,0.3433
3730.00,0.3431
3729.00,0.3428
3728.00,0.3425
3727.00,0.3423
3726.00,0.3421
3725.00,0.3420
3724.00,0.3419
3723.00,0.3418
3722.00,0.3417
3721.00,0.3417
3720.00,0.3416
3719.00,0.3416
3718.00,0.3417
3717.00,0.3417
3716.00,0.3418
3715.00,0.3419
3714.00,0.3420
3713.00,0.3422
3712.00,0.3424
3711.00,0.3425
3710.00,0.3426
3709.00,0.3426
3708.00,0.3426
3707.00,0.3426
3706.00,0.3426
3705.00,0.3426
3704.00,0.3426
3703.00,0.3426
3702.00,0.3426
3701.00,0.3426
3700.00,0.3427
3699.00,0.3427
3698.00,0.3428
3697.00,0.3430
3696.00,0.3432
3695.00,0.3435
3694.00,0.3438
3693.00,0.3441
3692.00,0.3444
3691.00,0.3447
3690.00,0.3450
3689.00,0.3453
3688.00,0.3456
3687.00,0.3459
3686.00,0.3461
3685.00,0.3462
3684.00,0.3464
3683.00,0.3465
3682.00,0.3466
3681.00,0.3467
3680.00,0.3468
3679.00,0.3469
3678.00,0.3471
3677.00,0.3474
3676.00,0.3477
3675.00,0.3481
3674.00,0.3483
3673.00,0.3484
3672.00,0.3485
3671.00,0.3486
3670.00,0.3488
3669.00,0.3488
3668.00,0.3488
3667.00,0.3488
3666.00,0.3489
3665.00,0.3489
3664.00,0.3491
3663.00,0.3492
3662.00,0.3494
3661.00,0.3497
3660.00,0.3501
3659.00,0.3504
3658.00,0.3509
3657.00,0.3514
3656.00,0.3521
3655.00,0.3528
3654.00,0.3534
3653.00,0.3541
3652.00,0.3548
3651.00,0.3555
3650.00,0.3562
3649.00,0.3568
3648.00,0.3574
3647.00,0.3581
3646.00,0.3586
3645.00,0.3592
3644.00,0.3599
3643.00,0.3605
3642.00,0.3613
3641.00,0.3621
3640.00,0.3631
3639.00,0.3642
3638.00,0.3654
3637.00,0.3668
3636.00,0.3681
3635.00,0.3695
3634.00,0.3709
3633.00,0.3725
3632.00,0.3744
3631.00,0.3768
3630.00,0.3799
3629.00,0.3837
3628.00,0.3876
3627.00,0.3909
3626.00,0.3934
3625.00,0.3951
3624.00,0.3958
3623.00,0.3954
3622.00,0.3940
3621.00,0.3916
3620.00,0.3886
3619.00,0.3853
3618.00,0.3824
3617.00,0.3799
3616.00,0.3781
3615.00,0.3768
3614.00,0.3761
3613.00,0.3757
3612.00,0.3756
3611.00,0.3757
3610.00,0.3759
3609.00,0.3763
3608.00,0.3768
3607.00,0.3773
3606.00,0.3776
3605.00,0.3778
3604.00,0.3779
3603.00,0.3779
3602.00,0.3777
3601.00,0.3774
3600.00,0.3769
3599.00,0.3763
3598.00,0.3756
3597.00,0.3749
3596.00,0.3743
3595.00,0.3736
3594.00,0.3729
3593.00,0.3722
3592.00,0.3716
3591.00,0.3711
3590.00,0.3708
3589.00,0.3705
3588.00,0.3704
3587.00,0.3702
3586.00,0.3700
3585.00,0.3698
3584.00,0.3696
3583.00,0.3695
3582.00,0.3693
3581.00,0.3691
3580.00,0.3689
3579.00,0.3688
3578.00,0.3686
3577.00,0.3686
3576.00,0.3687
3575.00,0.3688
3574.00,0.3690
3573.00,0.3693
3572.00,0.3697
3571.00,0.3701
3570.00,0.3706
3569.00,0.3710
3568.00,0.3715
3567.00,0.3721
3566.00,0.3726
3565.00,0.3731
3564.00,0.3736
3563.00,0.3740
3562.00,0.3744
3561.00,0.3748
3560.00,0.3753
3559.00,0.3758
3558.00,0.3763
3557.00,0.3770
3556.00,0.3776
3555.00,0.3783
3554.00,0.3790
3553.00,0.3797
3552.00,0.3805
3551.00,0.3813
3550.00,0.3821
3549.00,0.3829
3548.00,0.3838
3547.00,0.3846
3546.00,0.3856
3545.00,0.3866
3544.00,0.3876
3543.00,0.3886
3542.00,0.3896
3541.00,0.3906
3540.00,0.3916
3539.00,0.3925
3538.00,0.3936
3537.00,0.3946
3536.00,0.3958
3535.00,0.3969
3534.00,0.3980
3533.00,0.3991
3532.00,0.4001
3531.00,0.4013
3530.00,0.4024
3529.00,0.4035
3528.00,0.4046
3527.00,0.4058
3526.00,0.4069
3525.00,0.4081
3524.00,0.4093
3523.00,0.4105
3522.00,0.4116
3521.00,0.4128
3520.00,0.4139
3519.00,0.4151
3518.00,0.4163
3517.00,0.4176
3516.00,0.4189
3515.00,0.4202
3514.00,0.4215
3513.00,0.4230
3512.00,0.4245
3511.00,0.4259
3510.00,0.4274
3509.00,0.4289
3508.00,0.4304
3507.00,0.4318
3506.00,0.4332
3505.00,0.4347
3504.00,0.4361
3503.00,0.4376
3502.00,0.4391
3501.00,0.4407
3500.00,0.4423
3499.00,0.4440
3498.00,0.4456
3497.00,0.4472
3496.00,0.4488
3495.00,0.4504
3494.00,0.4520
3493.00,0.4536
3492.00,0.4551
3491.00,0.4567
3490.00,0.4583
3489.00,0.4599
3488.00,0.4616
3487.00,0.4633
3486.00,0.4650
3485.00,0.4668
3484.00,0.4686
3483.00,0.4704
3482.00,0.4723
3481.00,0.4742
3480.00,0.4760
3479.00,0.4777
3478.00,0.4795
3477.00,0.4814
3476.00,0.4833
3475.00,0.4852
3474.00,0.4871
3473.00,0.4890
3472.00,0.4910
3471.00,0.4930
3470.00,0.4950
3469.00,0.4970
3468.00,0.4990
3467.00,0.5010
3466.00,0.5031
3465.00,0.5052
3464.00,0.5073
3463.00,0.5095
3462.00,0.5117
3461.00,0.5139
3460.00,0.5162
3459.00,0.5184
3458.00,0.5207
3457.00,0.5230
3456.00,0.5254
3455.00,0.5280
3454.00,0.5306
3453.00,0.5332
3452.00,0.5359
3451.00,0.5385
3450.00,0.5413
3449.00,0.5442
3448.00,0.5473
3447.00,0.5505
3446.00,0.5538
3445.00,0.5571
3444.00,0.5606
3443.00,0.5641
3442.00,0.5676
3441.00,0.5711
3440.00,0.5745
3439.00,0.5778
3438.00,0.5810
3437.00,0.5841
3436.00,0.5871
3435.00,0.5898
3434.00,0.5923
3433.00,0.5946
3432.00,0.5969
3431.00,0.5990
3430.00,0.6011
3429.00,0.6032
3428.00,0.6052
3427.00,0.6072
3426.00,0.6091
3425.00,0.6112
3424.00,0.6133
3423.00,0.6155
3422.00,0.6176
3421.00,0.6198
3420.00,0.6220
3419.00,0.6241
3418.00,0.6261
3417.00,0.6281
3416.00,0.6302
3415.00,0.6324
3414.00,0.6348
3413.00,0.6372
3412.00,0.6395
3411.00,0.6417
3410.00,0.6438
3409.00,0.6460
3408.00,0.6481
3407.00,0.6502
3406.00,0.6524
3405.00,0.6546
3404.00,0.6568
3403.00,0.6590
3402.00,0.6611
3401.00,0.6633
3400.00,0.6655
3399.00,0.6675
3398.00,0.6696
3397.00,0.6715
3396.00,0.6734
3395.00,0.6752
3394.00,0.6771
3393.00,0.6790
3392.00,0.6810
3391.00,0.6828
3390.00,0.6847
3389.00,0.6865
3388.00,0.6883
3387.00,0.6901
3386.00,0.6919
3385.00,0.6937
3384.00,0.6954
3383.00,0.6972
3382.00,0.6989
3381.00,0.7007
3380.00,0.7024
3379.00,0.7040
3378.00,0.7055
3377.00,0.7071
3376.00,0.7086
3375.00,0.7102
3374.00,0.7118
3373.00,0.7135
3372.00,0.7152
3371.00,0.7169
3370.00,0.7186
3369.00,0.7203
3368.00,0.7220
3367.00,0.7235
3366.00,0.7251
3365.00,0.7266
3364.00,0.7282
3363.00,0.7298
3362.00,0.7315
3361.00,0.7333
3360.00,0.7349
3359.00,0.7365
3358.00,0.7380
3357.00,0.7395
3356.00,0.7411
3355.00,0.7426
3354.00,0.7441
3353.00,0.7455
3352.00,0.7468
3351.00,0.7481
3350.00,0.7494
3349.00,0.7506
3348.00,0.7518
3347.00,0.7529
3346.00,0.7540
3345.00,0.7550
3344.00,0.7559
3343.00,0.7568
3342.00,0.7577
3341.00,0.7585
3340.00,0.7593
3339.00,0.7599
3338.00,0.7603
3337.00,0.7606
3336.00,0.7608
3335.00,0.7608
3334.00,0.7609
3333.00,0.7609
3332.00,0.7609
3331.00,0.7607
3330.00,0.7604
3329.00,0.7599
3328.00,0.7594
3327.00,0.7588
3326.00,0.7581
3325.00,0.7572
3324.00,0.7562
3323.00,0.7553
3322.00,0.7544
3321.00,0.7535
3320.00,0.7525
3319.00,0.7515
3318.00,0.7503
3317.00,0.7491
3316.00,0.7478
3315.00,0.7465
3314.00,0.7452
3313.00,0.7439
3312.00,0.7427
3311.00,0.7414
3310.00,0.7400
3309.00,0.7386
3308.00,0.7372
3307.00,0.7360
3306.00,0.7348
3305.00,0.7337
3304.00,0.7325
3303.00,0.7313
3302.00,0.7302
3301.00,0.7292
3300.00,0.7283
3299.00,0.7275
3298.00,0.7265
3297.00,0.7256
3296.00,0.7248
3295.00,0.7240
3294.00,0.7232
3293.00,0.7224
3292.00,0.7216
3291.00,0.7208
3290.00,0.7201
3289.00,0.7195
3288.00,0.7191
3287.00,0.7187
3286.00,0.7184
3285.00,0.7181
3284.00,0.7178
3283.00,0.7174
3282.00,0.7170
3281.00,0.7166
3280.00,0.7162
3279.00,0.7158
3278.00,0.7156
3277.00,0.7153
3276.00,0.7151
3275.00,0.7148
3274.00,0.7146
3273.00,0.7143
3272.00,0.7140
3271.00,0.7136
3270.00,0.7132
3269.00,0.7128
3268.00,0.7126
3267.00,0.7125
3266.00,0.7123
3265.00,0.7121
3264.00,0.7118
3263.00,0.7115
3262.00,0.7111
3261.00,0.7107
3260.00,0.7102
3259.00,0.7096
3258.00,0.7091
3257.00,0.7085
3256.00,0.7080
3255.00,0.7074
3254.00,0.7067
3253.00,0.7060
3252.00,0.7053
3251.00,0.7046
3250.00,0.7037
3249.00,0.7027
3248.00,0.7016
3247.00,0.7005
3246.00,0.6993
3245.00,0.6980
3244.00,0.6967
3243.00,0.6953
3242.00,0.6939
3241.00,0.6924
3240.00,0.6907
3239.00,0.6891
3238.00,0.6875
3237.00,0.6859
3236.00,0.6842
3235.00,0.6825
3234.00,0.6808
3233.00,0.6790
3232.00,0.6772
3231.00,0.6754
3230.00,0.6735
3229.00,0.6715
3228.00,0.6695
3227.00,0.6675
3226.00,0.6655
3225.00,0.6637
3224.00,0.6618
3223.00,0.6598
3222.00,0.6578
3221.00,0.6557
3220.00,0.6536
3219.00,0.6515
3218.00,0.6495
3217.00,0.6474
3216.00,0.6453
3215.00,0.6432
3214.00,0.6412
3213.00,0.6392
3212.00,0.6373
3211.00,0.6353
3210.00,0.6332
3209.00,0.6312
3208.00,0.6292
3207.00,0.6271
3206.00,0.6251
3205.00,0.6231
3204.00,0.6211
3203.00,0.6191
3202.00,0.6170
3201.00,0.6150
3200.00,0.6131
3199.00,0.6110
3198.00,0.6090
3197.00,0.6068
3196.00,0.6047
3195.00,0.6026
3194.00,0.6005
3193.00,0.5984
3192.00,0.5963
3191.00,0.5941
3190.00,0.5919
3189.00,0.5897
3188.00,0.5876
3187.00,0.5855
3186.00,0.5835
3185.00,0.5814
3184.00,0.5792
3183.00,0.5770
3182.00,0.5749
3181.00,0.5729
3180.00,0.5710
3179.00,0.5691
3178.00,0.5671
3177.00,0.5650
3176.00,0.5629
3175.00,0.5608
3174.00,0.5586
3173.00,0.5565
3172.00,0.5545
3171.00,0.5526
3170.00,0.5508
3169.00,0.5489
3168.00,0.5470
3167.00,0.5450
3166.00,0.5431
3165.00,0.5412
3164.00,0.5393
3163.00,0.5375
3162.00,0.5357
3161.00,0.5340
3160.00,0.5324
3159.00,0.5309
3158.00,0.5293
3157.00,0.5277
3156.00,0.5261
3155.00,0.5245
3154.00,0.5230
3153.00,0.5216
3152.00,0.5203
3151.00,0.5190
3150.00,0.5177
3149.00,0.5164
3148.00,0.5151
3147.00,0.5139
3146.00,0.5126
3145.00,0.5114
3144.00,0.5102
3143.00,0.5091
3142.00,0.5081
3141.00,0.5070
3140.00,0.5059
3139.00,0.5049
3138.00,0.5039
3137.00,0.5029
3136.00,0.5018
3135.00,0.5008
3134.00,0.4997
3133.00,0.4987
3132.00,0.4977
3131.00,0.4968
3130.00,0.4958
3129.00,0.4949
3128.00,0.4940
3127.00,0.4932
3126.00,0.4924
3125.00,0.4916
3124.00,0.4909
3123.00,0.4902
3122.00,0.4896
3121.00,0.4892
3120.00,0.4889
3119.00,0.4886
3118.00,0.4883
3117.00,0.4880
3116.00,0.4878
3115.00,0.4877
3114.00,0.4877
3113.00,0.4878
3112.00,0.4880
3111.00,0.4883
3110.00,0.4887
3109.00,0.4890
3108.00,0.4894
3107.00,0.4898
3106.00,0.4902
3105.00,0.4907
3104.00,0.4911
3103.00,0.4916
3102.00,0.4921
3101.00,0.4926
3100.00,0.4931
3099.00,0.4936
3098.00,0.4941
3097.00,0.4946
3096.00,0.4951
3095.00,0.4957
3094.00,0.4963
3093.00,0.4970
3092.00,0.4977
3091.00,0.4984
3090.00,0.4991
3089.00,0.5000
3088.00,0.5009
3087.00,0.5019
3086.00,0.5030
3085.00,0.5042
3084.00,0.5055
3083.00,0.5070
3082.00,0.5085
3081.00,0.5101
3080.00,0.5118
3079.00,0.5135
3078.00,0.5153
3077.00,0.5171
3076.00,0.5191
3075.00,0.5212
3074.00,0.5235
3073.00,0.5258
3072.00,0.5283
3071.00,0.5309
3070.00,0.5337
3069.00,0.5365
3068.00,0.5395
3067.00,0.5425
3066.00,0.5456
3065.00,0.5488
3064.00,0.5520
3063.00,0.5554
3062.00,0.5587
3061.00,0.5621
3060.00,0.5655
3059.00,0.5689
3058.00,0.5722
3057.00,0.5756
3056.00,0.5789
3055.00,0.5821
3054.00,0.5852
3053.00,0.5882
3052.00,0.5911
3051.00,0.5937
3050.00,0.5963
3049.00,0.5989
3048.00,0.6017
3047.00,0.6047
3046.00,0.6078
3045.00,0.6111
3044.00,0.6144
3043.00,0.6178
3042.00,0.6214
3041.00,0.6253
3040.00,0.6294
3039.00,0.6339
3038.00,0.6386
3037.00,0.6435
3036.00,0.6488
3035.00,0.6542
3034.00,0.6598
3033.00,0.6655
3032.00,0.6713
3031.00,0.6772
3030.00,0.6832
3029.00,0.6894
3028.00,0.6955
3027.00,0.7017
3026.00,0.7077
3025.00,0.7138
3024.00,0.7200
3023.00,0.7265
3022.00,0.7332
3021.00,0.7401
3020.00,0.7472
3019.00,0.7545
3018.00,0.7622
3017.00,0.7703
3016.00,0.7788
3015.00,0.7878
3014.00,0.7974
3013.00,0.8074
3012.00,0.8180
3011.00,0.8291
3010.00,0.8410
3009.00,0.8535
3008.00,0.8668
3007.00,0.8807
3006.00,0.8956
3005.00,0.9112
3004.00,0.9278
3003.00,0.9454
3002.00,0.9640
3001.00,0.9838
3000.00,1.0048
2999.00,1.0271
2998.00,1.0509
2997.00,1.0763
2996.00,1.1035
2995.00,1.1325
2994.00,1.1635
2993.00,1.1968
2992.00,1.2325
2991.00,1.2710
2990.00,1.3127
2989.00,1.3580
2988.00,1.4071
2987.00,1.4610
2986.00,1.5204
2985.00,1.5859
2984.00,1.6578
2983.00,1.7369
2982.00,1.8247
2981.00,1.9222
2980.00,2.0300
2979.00,2.1491
2978.00,2.2817
2977.00,2.4297
2976.00,2.5935
2975.00,2.7720
2974.00,2.9615
2973.00,3.1518
2972.00,3.3263
2971.00,3.4761
2970.00,3.5929
2969.00,3.6499
2968.00,3.6486
2967.00,3.6489
2966.00,3.7013
2965.00,3.7413
2964.00,3.6677
2963.00,3.5724
2962.00,3.5563
2961.00,3.6618
2960.00,3.8652
2959.00,4.0013
2958.00,3.9191
2957.00,3.7760
2956.00,3.7063
2955.00,3.7275
2954.00,3.8039
2953.00,3.9626
2952.00,4.2468
2951.00,4.3093
2950.00,4.1015
2949.00,3.9727
2948.00,4.1107
2947.00,4.5858
2946.00,4.6253
2945.00,4.2667
2944.00,4.0367
2943.00,4.0180
2942.00,4.0895
2941.00,4.1636
2940.00,4.1522
2939.00,4.2155
2938.00,4.4128
2937.00,4.3086
2936.00,4.1192
2935.00,4.0156
2934.00,4.0563
2933.00,3.9861
2932.00,3.8346
2931.00,3.7290
2930.00,3.6648
2929.00,3.6452
2928.00,3.6521
2927.00,3.7020
2926.00,3.8315
2925.00,4.0472
2924.00,4.2390
2923.00,4.2125
2922.00,4.0933
2921.00,4.0605
2920.00,4.1202
2919.00,4.2540
2918.00,4.2681
2917.00,4.0674
2916.00,3.9035
2915.00,3.8745
2914.00,4.0035
2913.00,4.1322
2912.00,4.0853
2911.00,3.9762
2910.00,3.9472
2909.00,4.0142
2908.00,4.2099
2907.00,4.6524
2906.00,4.5117
2905.00,4.1980
2904.00,4.0303
2903.00,4.0137
2902.00,3.9737
2901.00,3.8964
2900.00,3.8851
2899.00,3.9522
2898.00,4.1195
2897.00,4.2464
2896.00,4.1529
2895.00,4.0223
2894.00,4.0280
2893.00,4.2167
2892.00,4.3562
2891.00,4.1772
2890.00,4.1409
2889.00,4.4219
2888.00,4.3992
2887.00,4.2739
2886.00,4.3077
2885.00,4.8285
2884.00,5.2832
2883.00,4.2468
2882.00,4.0032
2881.00,3.8725
2880.00,3.8553
2879.00,3.8620
2878.00,3.8297
2877.00,3.7843
2876.00,3.7480
2875.00,3.7792
2874.00,3.8712
2873.00,3.9567
2872.00,3.9852
2871.00,4.0447
2870.00,4.1419
2869.00,4.1033
2868.00,3.9820
2867.00,3.9321
2866.00,4.0215
2865.00,4.0959
2864.00,3.9907
2863.00,3.8962
2862.00,3.9060
2861.00,4.0240
2860.00,4.2190
2859.00,4.4116
2858.00,4.4573
2857.00,4.4030
2856.00,4.3420
2855.00,4.2588
2854.00,4.0743
2853.00,3.9080
2852.00,3.8462
2851.00,3.9291
2850.00,4.1574
2849.00,4.2892
2848.00,4.1898
2847.00,4.1538
2846.00,4.2456
2845.00,4.2493
2844.00,4.0349
2843.00,3.8490
2842.00,3.7454
2841.00,3.6540
2840.00,3.4965
2839.00,3.2837
2838.00,3.0624
2837.00,2.8532
2836.00,2.6642
2835.00,2.4971
2834.00,2.3485
2833.00,2.2145
2832.00,2.0938
2831.00,1.9859
2830.00,1.8894
2829.00,1.8025
2828.00,1.7242
2827.00,1.6537
2826.00,1.5900
2825.00,1.5319
2824.00,1.4786
2823.00,1.4297
2822.00,1.3848
2821.00,1.3432
2820.00,1.3046
2819.00,1.2688
2818.00,1.2356
2817.00,1.2047
2816.00,1.1758
2815.00,1.1486
2814.00,1.1230
2813.00,1.0986
2812.00,1.0754
2811.00,1.0533
2810.00,1.0322
2809.00,1.0119
2808.00,0.9923
2807.00,0.9733
2806.00,0.9549
2805.00,0.9371
2804.00,0.9199
2803.00,0.9031
2802.00,0.8869
2801.00,0.8711
2800.00,0.8558
2799.00,0.8411
2798.00,0.8272
2797.00,0.8138
2796.00,0.8010
2795.00,0.7889
2794.00,0.7774
2793.00,0.7666
2792.00,0.7563
2791.00,0.7466
2790.00,0.7372
2789.00,0.7282
2788.00,0.7194
2787.00,0.7107
2786.00,0.7022
2785.00,0.6937
2784.00,0.6854
2783.00,0.6771
2782.00,0.6691
2781.00,0.6611
2780.00,0.6534
2779.00,0.6458
2778.00,0.6384
2777.00,0.6314
2776.00,0.6247
2775.00,0.6183
2774.00,0.6122
2773.00,0.6065
2772.00,0.6014
2771.00,0.5968
2770.00,0.5927
2769.00,0.5890
2768.00,0.5856
2767.00,0.5825
2766.00,0.5798
2765.00,0.5774
2764.00,0.5752
2763.00,0.5733
2762.00,0.5716
2761.00,0.5701
2760.00,0.5688
2759.00,0.5678
2758.00,0.5669
2757.00,0.5662
2756.00,0.5657
2755.00,0.5654
2754.00,0.5652
2753.00,0.5652
2752.00,0.5654
2751.00,0.5657
2750.00,0.5663
2749.00,0.5671
2748.00,0.5680
2747.00,0.5690
2746.00,0.5702
2745.00,0.5716
2744.00,0.5731
2743.00,0.5748
2742.00,0.5767
2741.00,0.5789
2740.00,0.5815
2739.00,0.5844
2738.00,0.5878
2737.00,0.5915
2736.00,0.5958
2735.00,0.6004
2734.00,0.6050
2733.00,0.6093
2732.00,0.6125
2731.00,0.6142
2730.00,0.6140
2729.00,0.6118
2728.00,0.6078
2727.00,0.6026
2726.00,0.5968
2725.00,0.5908
2724.00,0.5852
2723.00,0.5803
2722.00,0.5761
2721.00,0.5727
2720.00,0.5699
2719.00,0.5675
2718.00,0.5655
2717.00,0.5636
2716.00,0.5615
2715.00,0.5593
2714.00,0.5569
2713.00,0.5543
2712.00,0.5516
2711.00,0.5490
2710.00,0.5465
2709.00,0.5442
2708.00,0.5421
2707.00,0.5404
2706.00,0.5390
2705.00,0.5379
2704.00,0.5369
2703.00,0.5361
2702.00,0.5355
2701.00,0.5352
2700.00,0.5352
2699.00,0.5355
2698.00,0.5361
2697.00,0.5370
2696.00,0.5382
2695.00,0.5395
2694.00,0.5411
2693.00,0.5429
2692.00,0.5448
2691.00,0.5467
2690.00,0.5485
2689.00,0.5502
2688.00,0.5517
2687.00,0.5530
2686.00,0.5542
2685.00,0.5550
2684.00,0.5556
2683.00,0.5559
2682.00,0.5562
2681.00,0.5566
2680.00,0.5569
2679.00,0.5573
2678.00,0.5577
2677.00,0.5579
2676.00,0.5581
2675.00,0.5582
2674.00,0.5582
2673.00,0.5581
2672.00,0.5578
2671.00,0.5572
2670.00,0.5563
