Created as New Dataset,
cm-1,A
4000.00,0.0858
3999.00,0.0855
3998.00,0.0851
3997.00,0.0849
3996.00,0.0848
3995.00,0.0846
3994.00,0.0843
3993.00,0.0839
3992.00,0.0834
3991.00,0.0829
3990.00,0.0826
3989.00,0.0823
3988.00,0.0821
3987.00,0.0817
3986.00,0.0813
3985.00,0.0807
3984.00,0.0801
3983.00,0.0797
3982.00,0.0794
3981.00,0.0792
3980.00,0.0790
3979.00,0.0787
3978.00,0.0784
3977.00,0.0782
3976.00,0.0780
3975.00,0.0777
3974.00,0.0774
3973.00,0.0769
3972.00,0.0764
3971.00,0.0760
3970.00,0.0757
3969.00,0.0755
3968.00,0.0752
3967.00,0.0750
3966.00,0.0749
3965.00,0.0747
3964.00,0.0746
3963.00,0.0745
3962.00,0.0744
3961.00,0.0743
3960.00,0.0740
3959.00,0.0736
3958.00,0.0732
3957.00,0.0729
3956.00,0.0727
3955.00,0.0727
3954.00,0.0728
3953.00,0.0728
3952.00,0.0727
3951.00,0.0724
3950.00,0.0722
3949.00,0.0721
3948.00,0.0721
3947.00,0.0721
3946.00,0.0720
3945.00,0.0719
3944.00,0.0718
3943.00,0.0717
3942.00,0.0717
3941.00,0.0717
3940.00,0.0718
3939.00,0.0717
3938.00,0.0714
3937.00,0.0712
3936.00,0.0711
3935.00,0.0712
3934.00,0.0714
3933.00,0.0715
3932.00,0.0716
3931.00,0.0717
3930.00,0.0717
3929.00,0.0716
3928.00,0.0716
3927.00,0.0716
3926.00,0.0716
3925.00,0.0716
3924.00,0.0714
3923.00,0.0713
3922.00,0.0713
3921.00,0.0713
3920.00,0.0714
3919.00,0.0714
3918.00,0.0713
3917.00,0.0710
3916.00,0.0706
3915.00,0.0703
3914.00,0.0702
3913.00,0.0701
3912.00,0.0699
3911.00,0.0699
3910.00,0.0700
3909.00,0.0701
3908.00,0.0701
3907.00,0.0699
3906.00,0.0697
3905.00,0.0698
3904.00,0.0702
3903.00,0.0707
3902.00,0.0711
3901.00,0.0710
3900.00,0.0706
3899.00,0.0701
3898.00,0.0699
3897.00,0.0699
3896.00,0.0699
3895.00,0.0696
3894.00,0.0692
3893.00,0.0691
3892.00,0.0692
3891.00,0.0693
3890.00,0.0692
3889.00,0.0692
3888.00,0.0693
3887.00,0.0692
3886.00,0.0690
3885.00,0.0688
3884.00,0.0689
3883.00,0.0691
3882.00,0.0689
3881.00,0.0684
3880.00,0.0682
3879.00,0.0684
3878.00,0.0688
3877.00,0.0689
3876.00,0.0684
3875.00,0.0678
3874.00,0.0676
3873.00,0.0678
3872.00,0.0683
3871.00,0.0684
3870.00,0.0680
3869.00,0.0675
3868.00,0.0676
3867.00,0.0682
3866.00,0.0682
3865.00,0.0675
3864.00,0.0669
3863.00,0.0669
3862.00,0.0671
3861.00,0.0670
3860.00,0.0667
3859.00,0.0663
3858.00,0.0662
3857.00,0.0664
3856.00,0.0671
3855.00,0.0681
3854.00,0.0689
3853.00,0.0684
3852.00,0.0675
3851.00,0.0680
3850.00,0.0690
3849.00,0.0686
3848.00,0.0673
3847.00,0.0665
3846.00,0.0663
3845.00,0.0662
3844.00,0.0661
3843.00,0.0662
3842.00,0.0663
3841.00,0.0667
3840.00,0.0669
3839.00,0.0669
3838.00,0.0667
3837.00,0.0664
3836.00,0.0662
3835.00,0.0662
3834.00,0.0660
3833.00,0.0658
3832.00,0.0656
3831.00,0.0655
3830.00,0.0654
3829.00,0.0653
3828.00,0.0650
3827.00,0.0647
3826.00,0.0644
3825.00,0.0646
3824.00,0.0652
3823.00,0.0656
3822.00,0.0656
3821.00,0.0652
3820.00,0.0648
3819.00,0.0651
3818.00,0.0658
3817.00,0.0657
3816.00,0.0648
3815.00,0.0643
3814.00,0.0644
3813.00,0.0647
3812.00,0.0644
3811.00,0.0634
3810.00,0.0627
3809.00,0.0628
3808.00,0.0629
3807.00,0.0624
3806.00,0.0618
3805.00,0.0619
3804.00,0.0624
3803.00,0.0627
3802.00,0.0624
3801.00,0.0621
3800.00,0.0621
3799.00,0.0626
3798.00,0.0627
3797.00,0.0620
3796.00,0.0610
3795.00,0.0608
3794.00,0.0609
3793.00,0.0608
3792.00,0.0602
3791.00,0.0596
3790.00,0.0594
3789.00,0.0596
3788.00,0.0598
3787.00,0.0598
3786.00,0.0598
3785.00,0.0597
3784.00,0.0594
3783.00,0.0592
3782.00,0.0592
3781.00,0.0591
3780.00,0.0590
3779.00,0.0589
3778.00,0.0587
3777.00,0.0586
3776.00,0.0583
3775.00,0.0578
3774.00,0.0573
3773.00,0.0573
3772.00,0.0575
3771.00,0.0577
3770.00,0.0576
3769.00,0.0573
3768.00,0.0574
3767.00,0.0576
3766.00,0.0576
3765.00,0.0572
3764.00,0.0568
3763.00,0.0567
3762.00,0.0565
3761.00,0.0560
3760.00,0.0555
3759.00,0.0554
3758.00,0.0555
3757.00,0.0555
3756.00,0.0554
3755.00,0.0553
3754.00,0.0552
3753.00,0.0553
3752.00,0.0556
3751.00,0.0559
3750.00,0.0556
3749.00,0.0553
3748.00,0.0554
3747.00,0.0557
3746.00,0.0558
3745.00,0.0556
3744.00,0.0551
3743.00,0.0546
3742.00,0.0551
3741.00,0.0557
3740.00,0.0550
3739.00,0.0540
3738.00,0.0542
3737.00,0.0549
3736.00,0.0550
3735.00,0.0544
3734.00,0.0541
3733.00,0.0542
3732.00,0.0542
3731.00,0.0539
3730.00,0.0536
3729.00,0.0533
3728.00,0.0528
3727.00,0.0523
3726.00,0.0521
3725.00,0.0522
3724.00,0.0524
3723.00,0.0523
3722.00,0.0520
3721.00,0.0519
3720.00,0.0519
3719.00,0.0519
3718.00,0.0515
3717.00,0.0510
3716.00,0.0507
3715.00,0.0507
3714.00,0.0509
3713.00,0.0510
3712.00,0.0510
3711.00,0.0509
3710.00,0.0510
3709.00,0.0513
3708.00,0.0516
3707.00,0.0516
3706.00,0.0514
3705.00,0.0512
3704.00,0.0509
3703.00,0.0506
3702.00,0.0504
3701.00,0.0503
3700.00,0.0504
3699.00,0.0506
3698.00,0.0507
3697.00,0.0505
3696.00,0.0502
3695.00,0.0503
3694.00,0.0505
3693.00,0.0505
3692.00,0.0505
3691.00,0.0504
3690.00,0.0504
3689.00,0.0503
3688.00,0.0500
3687.00,0.0500
3686.00,0.0503
3685.00,0.0504
3684.00,0.0500
3683.00,0.0494
3682.00,0.0491
3681.00,0.0492
3680.00,0.0492
3679.00,0.0493
3678.00,0.0496
3677.00,0.0502
3676.00,0.0504
3675.00,0.0501
3674.00,0.0499
3673.00,0.0506
3672.00,0.0512
3671.00,0.0506
3670.00,0.0499
3669.00,0.0496
3668.00,0.0498
3667.00,0.0500
3666.00,0.0498
3665.00,0.0493
3664.00,0.0491
3663.00,0.0491
3662.00,0.0491
3661.00,0.0491
3660.00,0.0492
3659.00,0.0495
3658.00,0.0497
3657.00,0.0497
3656.00,0.0493
3655.00,0.0491
3654.00,0.0493
3653.00,0.0497
3652.00,0.0499
3651.00,0.0504
3650.00,0.0512
3649.00,0.0514
3648.00,0.0510
3647.00,0.0509
3646.00,0.0510
3645.00,0.0512
3644.00,0.0510
3643.00,0.0507
3642.00,0.0503
3641.00,0.0500
3640.00,0.0499
3639.00,0.0497
3638.00,0.0494
3637.00,0.0492
3636.00,0.0491
3635.00,0.0492
3634.00,0.0491
3633.00,0.0492
3632.00,0.0495
3631.00,0.0500
3630.00,0.0505
3629.00,0.0506
3628.00,0.0503
3627.00,0.0503
3626.00,0.0507
3625.00,0.0507
3624.00,0.0501
3623.00,0.0500
3622.00,0.0503
3621.00,0.0507
3620.00,0.0506
3619.00,0.0503
3618.00,0.0503
3617.00,0.0506
3616.00,0.0510
3615.00,0.0511
3614.00,0.0509
3613.00,0.0506
3612.00,0.0503
3611.00,0.0501
3610.00,0.0497
3609.00,0.0492
3608.00,0.0488
3607.00,0.0485
3606.00,0.0483
3605.00,0.0480
3604.00,0.0475
3603.00,0.0470
3602.00,0.0465
3601.00,0.0459
3600.00,0.0451
3599.00,0.0442
3598.00,0.0434
3597.00,0.0427
3596.00,0.0420
3595.00,0.0414
3594.00,0.0407
3593.00,0.0400
3592.00,0.0396
3591.00,0.0392
3590.00,0.0388
3589.00,0.0384
3588.00,0.0381
3587.00,0.0377
3586.00,0.0373
3585.00,0.0370
3584.00,0.0367
3583.00,0.0363
3582.00,0.0361
3581.00,0.0361
3580.00,0.0361
3579.00,0.0358
3578.00,0.0353
3577.00,0.0350
3576.00,0.0348
3575.00,0.0349
3574.00,0.0349
3573.00,0.0348
3572.00,0.0345
3571.00,0.0344
3570.00,0.0345
3569.00,0.0346
3568.00,0.0348
3567.00,0.0347
3566.00,0.0347
3565.00,0.0348
3564.00,0.0349
3563.00,0.0346
3562.00,0.0342
3561.00,0.0339
3560.00,0.0338
3559.00,0.0339
3558.00,0.0338
3557.00,0.0336
3556.00,0.0334
3555.00,0.0332
3554.00,0.0332
3553.00,0.0334
3552.00,0.0336
3551.00,0.0337
3550.00,0.0337
3549.00,0.0336
3548.00,0.0335
3547.00,0.0336
3546.00,0.0337
3545.00,0.0339
3544.00,0.0339
3543.00,0.0339
3542.00,0.0337
3541.00,0.0335
3540.00,0.0333
3539.00,0.0332
3538.00,0.0332
3537.00,0.0333
3536.00,0.0332
3535.00,0.0331
3534.00,0.0331
3533.00,0.0332
3532.00,0.0332
3531.00,0.0331
3530.00,0.0330
3529.00,0.0328
3528.00,0.0329
3527.00,0.0331
3526.00,0.0334
3525.00,0.0335
3524.00,0.0336
3523.00,0.0336
3522.00,0.0337
3521.00,0.0339
3520.00,0.0341
3519.00,0.0343
3518.00,0.0344
3517.00,0.0346
3516.00,0.0348
3515.00,0.0349
3514.00,0.0349
3513.00,0.0349
3512.00,0.0350
3511.00,0.0351
3510.00,0.0352
3509.00,0.0353
3508.00,0.0353
3507.00,0.0352
3506.00,0.0353
3505.00,0.0354
3504.00,0.0356
3503.00,0.0358
3502.00,0.0360
3501.00,0.0361
3500.00,0.0362
3499.00,0.0363
3498.00,0.0365
3497.00,0.0367
3496.00,0.0368
3495.00,0.0369
3494.00,0.0370
3493.00,0.0371
3492.00,0.0372
3491.00,0.0372
3490.00,0.0373
3489.00,0.0375
3488.00,0.0377
3487.00,0.0380
3486.00,0.0382
3485.00,0.0384
3484.00,0.0386
3483.00,0.0389
3482.00,0.0390
3481.00,0.0390
3480.00,0.0388
3479.00,0.0387
3478.00,0.0387
3477.00,0.0390
3476.00,0.0391
3475.00,0.0392
3474.00,0.0392
3473.00,0.0393
3472.00,0.0395
3471.00,0.0398
3470.00,0.0400
3469.00,0.0401
3468.00,0.0401
3467.00,0.0400
3466.00,0.0401
3465.00,0.0403
3464.00,0.0406
3463.00,0.0407
3462.00,0.0407
3461.00,0.0407
3460.00,0.0409
3459.00,0.0412
3458.00,0.0415
3457.00,0.0416
3456.00,0.0415
3455.00,0.0414
3454.00,0.0414
3453.00,0.0415
3452.00,0.0418
3451.00,0.0421
3450.00,0.0423
3449.00,0.0424
3448.00,0.0425
3447.00,0.0426
3446.00,0.0429
3445.00,0.0433
3444.00,0.0436
3443.00,0.0438
3442.00,0.0438
3441.00,0.0437
3440.00,0.0437
3439.00,0.0436
3438.00,0.0436
3437.00,0.0435
3436.00,0.0436
3435.00,0.0436
3434.00,0.0437
3433.00,0.0437
3432.00,0.0438
3431.00,0.0440
3430.00,0.0443
3429.00,0.0445
3428.00,0.0447
3427.00,0.0447
3426.00,0.0446
3425.00,0.0446
3424.00,0.0448
3423.00,0.0449
3422.00,0.0451
3421.00,0.0453
3420.00,0.0454
3419.00,0.0454
3418.00,0.0454
3417.00,0.0453
3416.00,0.0453
3415.00,0.0453
3414.00,0.0454
3413.00,0.0454
3412.00,0.0455
3411.00,0.0457
3410.00,0.0460
3409.00,0.0462
3408.00,0.0462
3407.00,0.0462
3406.00,0.0461
3405.00,0.0461
3404.00,0.0462
3403.00,0.0464
3402.00,0.0465
3401.00,0.0466
3400.00,0.0468
3399.00,0.0470
3398.00,0.0472
3397.00,0.0474
3396.00,0.0475
3395.00,0.0475
3394.00,0.0476
3393.00,0.0476
3392.00,0.0477
3391.00,0.0478
3390.00,0.0479
3389.00,0.0480
3388.00,0.0482
3387.00,0.0485
3386.00,0.0488
3385.00,0.0491
3384.00,0.0494
3383.00,0.0494
3382.00,0.0493
3381.00,0.0493
3380.00,0.0494
3379.00,0.0496
3378.00,0.0498
3377.00,0.0500
3376.00,0.0501
3375.00,0.0503
3374.00,0.0505
3373.00,0.0505
3372.00,0.0505
3371.00,0.0505
3370.00,0.0506
3369.00,0.0507
3368.00,0.0507
3367.00,0.0506
3366.00,0.0505
3365.00,0.0504
3364.00,0.0504
3363.00,0.0504
3362.00,0.0503
3361.00,0.0503
3360.00,0.0504
3359.00,0.0507
3358.00,0.0511
3357.00,0.0513
3356.00,0.0513
3355.00,0.0511
3354.00,0.0510
3353.00,0.0511
3352.00,0.0512
3351.00,0.0511
3350.00,0.0510
3349.00,0.0509
3348.00,0.0511
3347.00,0.0514
3346.00,0.0517
3345.00,0.0519
3344.00,0.0519
3343.00,0.0517
3342.00,0.0516
3341.00,0.0516
3340.00,0.0517
3339.00,0.0519
3338.00,0.0520
3337.00,0.0519
3336.00,0.0518
3335.00,0.0517
3334.00,0.0518
3333.00,0.0519
3332.00,0.0520
3331.00,0.0519
3330.00,0.0519
3329.00,0.0518
3328.00,0.0517
3327.00,0.0516
3326.00,0.0517
3325.00,0.0518
3324.00,0.0519
3323.00,0.0520
3322.00,0.0519
3321.00,0.0518
3320.00,0.0518
3319.00,0.0517
3318.00,0.0517
3317.00,0.0516
3316.00,0.0516
3315.00,0.0517
3314.00,0.0518
3313.00,0.0518
3312.00,0.0519
3311.00,0.0520
3310.00,0.0521
3309.00,0.0522
3308.00,0.0522
3307.00,0.0521
3306.00,0.0520
3305.00,0.0520
3304.00,0.0520
3303.00,0.0521
3302.00,0.0523
3301.00,0.0524
3300.00,0.0524
3299.00,0.0522
3298.00,0.0521
3297.00,0.0521
3296.00,0.0522
3295.00,0.0523
3294.00,0.0523
3293.00,0.0523
3292.00,0.0523
3291.00,0.0524
3290.00,0.0524
3289.00,0.0526
3288.00,0.0528
3287.00,0.0528
3286.00,0.0527
3285.00,0.0526
3284.00,0.0526
3283.00,0.0530
3282.00,0.0534
3281.00,0.0538
3280.00,0.0539
3279.00,0.0540
3278.00,0.0541
3277.00,0.0543
3276.00,0.0546
3275.00,0.0548
3274.00,0.0550
3273.00,0.0551
3272.00,0.0552
3271.00,0.0554
3270.00,0.0557
3269.00,0.0559
3268.00,0.0561
3267.00,0.0562
3266.00,0.0563
3265.00,0.0564
3264.00,0.0566
3263.00,0.0569
3262.00,0.0571
3261.00,0.0573
3260.00,0.0575
3259.00,0.0578
3258.00,0.0582
3257.00,0.0586
3256.00,0.0588
3255.00,0.0590
3254.00,0.0592
3253.00,0.0595
3252.00,0.0598
3251.00,0.0601
3250.00,0.0604
3249.00,0.0608
3248.00,0.0612
3247.00,0.0616
3246.00,0.0618
3245.00,0.0620
3244.00,0.0622
3243.00,0.0626
3242.00,0.0632
3241.00,0.0638
3240.00,0.0643
3239.00,0.0647
3238.00,0.0651
3237.00,0.0654
3236.00,0.0660
3235.00,0.0666
3234.00,0.0672
3233.00,0.0678
3232.00,0.0683
3231.00,0.0688
3230.00,0.0694
3229.00,0.0702
3228.00,0.0710
3227.00,0.0716
3226.00,0.0722
3225.00,0.0728
3224.00,0.0733
3223.00,0.0740
3222.00,0.0749
3221.00,0.0759
3220.00,0.0769
3219.00,0.0779
3218.00,0.0788
3217.00,0.0796
3216.00,0.0805
3215.00,0.0816
3214.00,0.0826
3213.00,0.0837
3212.00,0.0847
3211.00,0.0857
3210.00,0.0868
3209.00,0.0880
3208.00,0.0892
3207.00,0.0902
3206.00,0.0912
3205.00,0.0923
3204.00,0.0935
3203.00,0.0945
3202.00,0.0955
3201.00,0.0963
3200.00,0.0973
3199.00,0.0983
3198.00,0.0995
3197.00,0.1006
3196.00,0.1016
3195.00,0.1026
3194.00,0.1035
3193.00,0.1044
3192.00,0.1053
3191.00,0.1061
3190.00,0.1068
3189.00,0.1074
3188.00,0.1080
3187.00,0.1086
3186.00,0.1093
3185.00,0.1099
3184.00,0.1106
3183.00,0.1113
3182.00,0.1119
3181.00,0.1124
3180.00,0.1129
3179.00,0.1134
3178.00,0.1139
3177.00,0.1144
3176.00,0.1146
3175.00,0.1146
3174.00,0.1147
3173.00,0.1148
3172.00,0.1151
3171.00,0.1154
3170.00,0.1157
3169.00,0.1159
3168.00,0.1161
3167.00,0.1164
3166.00,0.1167
3165.00,0.1170
3164.00,0.1172
3163.00,0.1174
3162.00,0.1175
3161.00,0.1178
3160.00,0.1180
3159.00,0.1181
3158.00,0.1180
3157.00,0.1180
3156.00,0.1182
3155.00,0.1185
3154.00,0.1186
3153.00,0.1187
3152.00,0.1187
3151.00,0.1188
3150.00,0.1191
3149.00,0.1194
3148.00,0.1196
3147.00,0.1198
3146.00,0.1197
3145.00,0.1196
3144.00,0.1194
3143.00,0.1194
3142.00,0.1196
3141.00,0.1199
3140.00,0.1203
3139.00,0.1206
3138.00,0.1208
3137.00,0.1209
3136.00,0.1211
3135.00,0.1213
3134.00,0.1216
3133.00,0.1219
3132.00,0.1222
3131.00,0.1225
3130.00,0.1229
3129.00,0.1234
3128.00,0.1239
3127.00,0.1243
3126.00,0.1247
3125.00,0.1252
3124.00,0.1258
3123.00,0.1264
3122.00,0.1270
3121.00,0.1276
3120.00,0.1283
3119.00,0.1290
3118.00,0.1296
3117.00,0.1302
3116.00,0.1308
3115.00,0.1315
3114.00,0.1323
3113.00,0.1331
3112.00,0.1339
3111.00,0.1346
3110.00,0.1355
3109.00,0.1366
3108.00,0.1378
3107.00,0.1391
3106.00,0.1403
3105.00,0.1414
3104.00,0.1424
3103.00,0.1437
3102.00,0.1449
3101.00,0.1461
3100.00,0.1472
3099.00,0.1483
3098.00,0.1498
3097.00,0.1515
3096.00,0.1533
3095.00,0.1550
3094.00,0.1567
3093.00,0.1585
3092.00,0.1605
3091.00,0.1627
3090.00,0.1651
3089.00,0.1677
3088.00,0.1705
3087.00,0.1735
3086.00,0.1766
3085.00,0.1800
3084.00,0.1836
3083.00,0.1873
3082.00,0.1910
3081.00,0.1948
3080.00,0.1988
3079.00,0.2031
3078.00,0.2074
3077.00,0.2117
3076.00,0.2159
3075.00,0.2201
3074.00,0.2244
3073.00,0.2288
3072.00,0.2330
3071.00,0.2370
3070.00,0.2411
3069.00,0.2453
3068.00,0.2496
3067.00,0.2542
3066.00,0.2587
3065.00,0.2629
3064.00,0.2668
3063.00,0.2704
3062.00,0.2739
3061.00,0.2772
3060.00,0.2805
3059.00,0.2836
3058.00,0.2864
3057.00,0.2891
3056.00,0.2917
3055.00,0.2944
3054.00,0.2972
3053.00,0.3003
3052.00,0.3037
3051.00,0.3072
3050.00,0.3109
3049.00,0.3147
3048.00,0.3186
3047.00,0.3228
3046.00,0.3273
3045.00,0.3320
3044.00,0.3367
3043.00,0.3413
3042.00,0.3459
3041.00,0.3504
3040.00,0.3550
3039.00,0.3595
3038.00,0.3643
3037.00,0.3693
3036.00,0.3746
3035.00,0.3802
3034.00,0.3861
3033.00,0.3923
3032.00,0.3989
3031.00,0.4059
3030.00,0.4132
3029.00,0.4211
3028.00,0.4293
3027.00,0.4378
3026.00,0.4469
3025.00,0.4567
3024.00,0.4672
3023.00,0.4779
3022.00,0.4887
3021.00,0.4998
3020.00,0.5112
3019.00,0.5232
3018.00,0.5355
3017.00,0.5476
3016.00,0.5596
3015.00,0.5716
3014.00,0.5837
3013.00,0.5958
3012.00,0.6079
3011.00,0.6203
3010.00,0.6334
3009.00,0.6473
3008.00,0.6622
3007.00,0.6778
3006.00,0.6943
3005.00,0.7118
3004.00,0.7301
3003.00,0.7491
3002.00,0.7689
3001.00,0.7894
3000.00,0.8108
2999.00,0.8330
2998.00,0.8561
2997.00,0.8802
2996.00,0.9060
2995.00,0.9346
2994.00,0.9674
2993.00,1.0046
2992.00,1.0456
2991.00,1.0894
2990.00,1.1365
2989.00,1.1880
2988.00,1.2451
2987.00,1.3082
2986.00,1.3772
2985.00,1.4523
2984.00,1.5350
2983.00,1.6267
2982.00,1.7266
2981.00,1.8304
2980.00,1.9340
2979.00,2.0396
2978.00,2.1503
2977.00,2.2574
2976.00,2.3395
2975.00,2.3907
2974.00,2.4323
2973.00,2.4793
2972.00,2.5240
2971.00,2.5555
2970.00,2.5788
2969.00,2.6022
2968.00,2.6189
2967.00,2.6262
2966.00,2.6412
2965.00,2.6817
2964.00,2.7358
2963.00,2.7614
2962.00,2.7354
2961.00,2.6801
2960.00,2.6328
2959.00,2.6155
2958.00,2.6343
2957.00,2.6724
2956.00,2.6927
2955.00,2.6703
2954.00,2.6252
2953.00,2.5935
2952.00,2.5896
2951.00,2.5995
2950.00,2.6004
2949.00,2.5923
2948.00,2.5997
2947.00,2.6337
2946.00,2.6605
2945.00,2.6333
2944.00,2.5730
2943.00,2.5384
2942.00,2.5495
2941.00,2.5794
2940.00,2.5902
2939.00,2.5852
2938.00,2.5944
2937.00,2.6228
2936.00,2.6468
2935.00,2.6582
2934.00,2.6869
2933.00,2.7600
2932.00,2.8687
2931.00,2.9623
2930.00,2.9867
2929.00,2.9404
2928.00,2.8622
2927.00,2.7895
2926.00,2.7346
2925.00,2.6823
2924.00,2.6198
2923.00,2.5678
2922.00,2.5527
2921.00,2.5731
2920.00,2.5973
2919.00,2.6022
2918.00,2.6006
2917.00,2.6099
2916.00,2.6238
2915.00,2.6307
2914.00,2.6353
2913.00,2.6461
2912.00,2.6580
2911.00,2.6580
2910.00,2.6412
2909.00,2.6153
2908.00,2.5965
2907.00,2.5959
2906.00,2.6066
2905.00,2.6102
2904.00,2.6066
2903.00,2.6212
2902.00,2.6659
2901.00,2.7032
2900.00,2.6846
2899.00,2.6239
2898.00,2.5730
2897.00,2.5588
2896.00,2.5788
2895.00,2.6116
2894.00,2.6231
2893.00,2.6056
2892.00,2.5873
2891.00,2.5896
2890.00,2.5964
2889.00,2.5767
2888.00,2.5356
2887.00,2.5096
2886.00,2.5183
2885.00,2.5481
2884.00,2.5722
2883.00,2.5801
2882.00,2.5765
2881.00,2.5591
2880.00,2.5244
2879.00,2.4876
2878.00,2.4699
2877.00,2.4782
2876.00,2.5052
2875.00,2.5378
2874.00,2.5615
2873.00,2.5653
2872.00,2.5572
2871.00,2.5621
2870.00,2.5956
2869.00,2.6454
2868.00,2.6831
2867.00,2.6991
2866.00,2.7096
2865.00,2.7210
2864.00,2.7193
2863.00,2.7042
2862.00,2.6955
2861.00,2.6979
2860.00,2.6923
2859.00,2.6730
2858.00,2.6605
2857.00,2.6631
2856.00,2.6667
2855.00,2.6636
2854.00,2.6652
2853.00,2.6760
2852.00,2.6818
2851.00,2.6708
2850.00,2.6503
2849.00,2.6331
2848.00,2.6251
2847.00,2.6281
2846.00,2.6364
2845.00,2.6371
2844.00,2.6288
2843.00,2.6279
2842.00,2.6413
2841.00,2.6417
2840.00,2.5924
2839.00,2.5034
2838.00,2.4127
2837.00,2.3333
2836.00,2.2525
2835.00,2.1572
2834.00,2.0467
2833.00,1.9279
2832.00,1.8091
2831.00,1.6985
2830.00,1.6006
2829.00,1.5145
2828.00,1.4370
2827.00,1.3657
2826.00,1.2993
2825.00,1.2374
2824.00,1.1801
2823.00,1.1282
2822.00,1.0820
2821.00,1.0402
2820.00,1.0018
2819.00,0.9660
2818.00,0.9327
2817.00,0.9015
2816.00,0.8719
2815.00,0.8437
2814.00,0.8169
2813.00,0.7918
2812.00,0.7679
2811.00,0.7450
2810.00,0.7230
2809.00,0.7019
2808.00,0.6819
2807.00,0.6629
2806.00,0.6451
2805.00,0.6281
2804.00,0.6115
2803.00,0.5953
2802.00,0.5798
2801.00,0.5650
2800.00,0.5510
2799.00,0.5377
2798.00,0.5251
2797.00,0.5130
2796.00,0.5013
2795.00,0.4900
2794.00,0.4790
2793.00,0.4685
2792.00,0.4584
2791.00,0.4486
2790.00,0.4389
2789.00,0.4294
2788.00,0.4201
2787.00,0.4111
2786.00,0.4022
2785.00,0.3935
2784.00,0.3850
2783.00,0.3767
2782.00,0.3689
2781.00,0.3614
2780.00,0.3541
2779.00,0.3470
2778.00,0.3401
2777.00,0.3335
2776.00,0.3273
2775.00,0.3217
2774.00,0.3165
2773.00,0.3117
2772.00,0.3071
2771.00,0.3027
2770.00,0.2988
2769.00,0.2952
2768.00,0.2919
2767.00,0.2889
2766.00,0.2862
2765.00,0.2841
2764.00,0.2824
2763.00,0.2811
2762.00,0.2799
2761.00,0.2785
2760.00,0.2770
2759.00,0.2757
2758.00,0.2744
2757.00,0.2734
2756.00,0.2725
2755.00,0.2718
2754.00,0.2710
2753.00,0.2705
2752.00,0.2703
2751.00,0.2704
2750.00,0.2706
2749.00,0.2707
2748.00,0.2707
2747.00,0.2711
2746.00,0.2719
2745.00,0.2732
2744.00,0.2747
2743.00,0.2764
2742.00,0.2783
2741.00,0.2805
2740.00,0.2831
2739.00,0.2862
2738.00,0.2899
2737.00,0.2942
2736.00,0.2990
2735.00,0.3043
2734.00,0.3097
2733.00,0.3150
2732.00,0.3198
2731.00,0.3240
2730.00,0.3272
2729.00,0.3291
2728.00,0.3298
2727.00,0.3293
2726.00,0.3278
2725.00,0.3256
2724.00,0.3230
2723.00,0.3203
2722.00,0.3174
2721.00,0.3145
2720.00,0.3114
2719.00,0.3081
2718.00,0.3044
2717.00,0.3003
2716.00,0.2958
2715.00,0.2913
2714.00,0.2870
2713.00,0.2830
2712.00,0.2791
2711.00,0.2753
2710.00,0.2718
2709.00,0.2686
2708.00,0.2659
2707.00,0.2638
2706.00,0.2624
2705.00,0.2613
2704.00,0.2605
2703.00,0.2599
2702.00,0.2596
2701.00,0.2594
2700.00,0.2596
2699.00,0.2601
2698.00,0.2607
2697.00,0.2614
2696.00,0.2621
2695.00,0.2629
2694.00,0.2641
2693.00,0.2656
2692.00,0.2672
2691.00,0.2687
2690.00,0.2701
2689.00,0.2713
2688.00,0.2725
2687.00,0.2736
2686.00,0.2746
2685.00,0.2753
2684.00,0.2758
2683.00,0.2759
2682.00,0.2757
2681.00,0.2755
2680.00,0.2755
2679.00,0.2755
2678.00,0.2755
2677.00,0.2753
2676.00,0.2749
2675.00,0.2746
2674.00,0.2744
2673.00,0.2740
2672.00,0.2735
2671.00,0.2727
2670.00,0.2719
