Created as New Dataset,
cm-1,A
4000.00,0.6677
3999.00,0.6676
3998.00,0.6672
3997.00,0.6666
3996.00,0.6660
3995.00,0.6657
3994.00,0.6655
3993.00,0.6655
3992.00,0.6655
3991.00,0.6654
3990.00,0.6649
3989.00,0.6642
3988.00,0.6634
3987.00,0.6630
3986.00,0.6628
3985.00,0.6626
3984.00,0.6621
3983.00,0.6610
3982.00,0.6599
3981.00,0.6590
3980.00,0.6588
3979.00,0.6590
3978.00,0.6593
3977.00,0.6593
3976.00,0.6588
3975.00,0.6581
3974.00,0.6574
3973.00,0.6569
3972.00,0.6567
3971.00,0.6566
3970.00,0.6565
3969.00,0.6561
3968.00,0.6554
3967.00,0.6545
3966.00,0.6538
3965.00,0.6535
3964.00,0.6535
3963.00,0.6537
3962.00,0.6538
3961.00,0.6539
3960.00,0.6539
3959.00,0.6537
3958.00,0.6534
3957.00,0.6531
3956.00,0.6528
3955.00,0.6527
3954.00,0.6526
3953.00,0.6524
3952.00,0.6521
3951.00,0.6517
3950.00,0.6514
3949.00,0.6513
3948.00,0.6512
3947.00,0.6512
3946.00,0.6511
3945.00,0.6509
3944.00,0.6509
3943.00,0.6512
3942.00,0.6517
3941.00,0.6521
3940.00,0.6522
3939.00,0.6518
3938.00,0.6510
3937.00,0.6502
3936.00,0.6496
3935.00,0.6494
3934.00,0.6496
3933.00,0.6498
3932.00,0.6499
3931.00,0.6500
3930.00,0.6501
3929.00,0.6501
3928.00,0.6501
3927.00,0.6501
3926.00,0.6500
3925.00,0.6499
3924.00,0.6496
3923.00,0.6495
3922.00,0.6494
3921.00,0.6495
3920.00,0.6494
3919.00,0.6493
3918.00,0.6493
3917.00,0.6493
3916.00,0.6494
3915.00,0.6494
3914.00,0.6493
3913.00,0.6491
3912.00,0.6489
3911.00,0.6488
3910.00,0.6487
3909.00,0.6485
3908.00,0.6482
3907.00,0.6480
3906.00,0.6480
3905.00,0.6483
3904.00,0.6486
3903.00,0.6488
3902.00,0.6487
3901.00,0.6488
3900.00,0.6489
3899.00,0.6489
3898.00,0.6487
3897.00,0.6482
3896.00,0.6478
3895.00,0.6476
3894.00,0.6474
3893.00,0.6473
3892.00,0.6471
3891.00,0.6468
3890.00,0.6464
3889.00,0.6459
3888.00,0.6459
3887.00,0.6462
3886.00,0.6466
3885.00,0.6466
3884.00,0.6463
3883.00,0.6461
3882.00,0.6463
3881.00,0.6467
3880.00,0.6470
3879.00,0.6472
3878.00,0.6472
3877.00,0.6472
3876.00,0.6473
3875.00,0.6469
3874.00,0.6460
3873.00,0.6449
3872.00,0.6443
3871.00,0.6443
3870.00,0.6446
3869.00,0.6446
3868.00,0.6447
3867.00,0.6450
3866.00,0.6455
3865.00,0.6458
3864.00,0.6457
3863.00,0.6454
3862.00,0.6451
3861.00,0.6447
3860.00,0.6441
3859.00,0.6436
3858.00,0.6432
3857.00,0.6430
3856.00,0.6428
3855.00,0.6427
3854.00,0.6425
3853.00,0.6424
3852.00,0.6425
3851.00,0.6426
3850.00,0.6427
3849.00,0.6427
3848.00,0.6424
3847.00,0.6419
3846.00,0.6416
3845.00,0.6415
3844.00,0.6414
3843.00,0.6411
3842.00,0.6408
3841.00,0.6409
3840.00,0.6415
3839.00,0.6423
3838.00,0.6427
3837.00,0.6424
3836.00,0.6418
3835.00,0.6416
3834.00,0.6417
3833.00,0.6418
3832.00,0.6416
3831.00,0.6411
3830.00,0.6407
3829.00,0.6404
3828.00,0.6402
3827.00,0.6399
3826.00,0.6394
3825.00,0.6388
3824.00,0.6384
3823.00,0.6385
3822.00,0.6387
3821.00,0.6389
3820.00,0.6390
3819.00,0.6391
3818.00,0.6391
3817.00,0.6390
3816.00,0.6385
3815.00,0.6377
3814.00,0.6372
3813.00,0.6371
3812.00,0.6371
3811.00,0.6369
3810.00,0.6365
3809.00,0.6361
3808.00,0.6359
3807.00,0.6356
3806.00,0.6350
3805.00,0.6344
3804.00,0.6343
3803.00,0.6349
3802.00,0.6357
3801.00,0.6361
3800.00,0.6359
3799.00,0.6354
3798.00,0.6353
3797.00,0.6354
3796.00,0.6352
3795.00,0.6345
3794.00,0.6336
3793.00,0.6329
3792.00,0.6325
3791.00,0.6323
3790.00,0.6321
3789.00,0.6317
3788.00,0.6311
3787.00,0.6306
3786.00,0.6304
3785.00,0.6304
3784.00,0.6306
3783.00,0.6308
3782.00,0.6309
3781.00,0.6308
3780.00,0.6305
3779.00,0.6299
3778.00,0.6293
3777.00,0.6287
3776.00,0.6284
3775.00,0.6284
3774.00,0.6287
3773.00,0.6290
3772.00,0.6293
3771.00,0.6291
3770.00,0.6284
3769.00,0.6277
3768.00,0.6275
3767.00,0.6279
3766.00,0.6284
3765.00,0.6287
3764.00,0.6286
3763.00,0.6283
3762.00,0.6280
3761.00,0.6277
3760.00,0.6274
3759.00,0.6272
3758.00,0.6273
3757.00,0.6274
3756.00,0.6271
3755.00,0.6262
3754.00,0.6251
3753.00,0.6242
3752.00,0.6241
3751.00,0.6248
3750.00,0.6258
3749.00,0.6261
3748.00,0.6258
3747.00,0.6258
3746.00,0.6264
3745.00,0.6272
3744.00,0.6271
3743.00,0.6259
3742.00,0.6246
3741.00,0.6240
3740.00,0.6241
3739.00,0.6243
3738.00,0.6243
3737.00,0.6240
3736.00,0.6237
3735.00,0.6237
3734.00,0.6242
3733.00,0.6248
3732.00,0.6247
3731.00,0.6240
3730.00,0.6231
3729.00,0.6228
3728.00,0.6229
3727.00,0.6229
3726.00,0.6225
3725.00,0.6219
3724.00,0.6214
3723.00,0.6213
3722.00,0.6216
3721.00,0.6221
3720.00,0.6224
3719.00,0.6222
3718.00,0.6217
3717.00,0.6209
3716.00,0.6201
3715.00,0.6198
3714.00,0.6200
3713.00,0.6206
3712.00,0.6210
3711.00,0.6210
3710.00,0.6208
3709.00,0.6207
3708.00,0.6207
3707.00,0.6209
3706.00,0.6208
3705.00,0.6205
3704.00,0.6201
3703.00,0.6198
3702.00,0.6198
3701.00,0.6202
3700.00,0.6205
3699.00,0.6205
3698.00,0.6201
3697.00,0.6196
3696.00,0.6193
3695.00,0.6193
3694.00,0.6198
3693.00,0.6203
3692.00,0.6206
3691.00,0.6205
3690.00,0.6206
3689.00,0.6210
3688.00,0.6215
3687.00,0.6217
3686.00,0.6215
3685.00,0.6211
3684.00,0.6207
3683.00,0.6203
3682.00,0.6202
3681.00,0.6204
3680.00,0.6206
3679.00,0.6205
3678.00,0.6204
3677.00,0.6207
3676.00,0.6215
3675.00,0.6224
3674.00,0.6227
3673.00,0.6224
3672.00,0.6222
3671.00,0.6224
3670.00,0.6228
3669.00,0.6232
3668.00,0.6233
3667.00,0.6230
3666.00,0.6225
3665.00,0.6220
3664.00,0.6217
3663.00,0.6215
3662.00,0.6214
3661.00,0.6214
3660.00,0.6215
3659.00,0.6220
3658.00,0.6228
3657.00,0.6234
3656.00,0.6237
3655.00,0.6239
3654.00,0.6241
3653.00,0.6246
3652.00,0.6252
3651.00,0.6257
3650.00,0.6260
3649.00,0.6267
3648.00,0.6275
3647.00,0.6282
3646.00,0.6284
3645.00,0.6285
3644.00,0.6284
3643.00,0.6285
3642.00,0.6287
3641.00,0.6292
3640.00,0.6299
3639.00,0.6306
3638.00,0.6311
3637.00,0.6315
3636.00,0.6320
3635.00,0.6326
3634.00,0.6334
3633.00,0.6344
3632.00,0.6357
3631.00,0.6374
3630.00,0.6396
3629.00,0.6421
3628.00,0.6445
3627.00,0.6464
3626.00,0.6480
3625.00,0.6496
3624.00,0.6510
3623.00,0.6516
3622.00,0.6511
3621.00,0.6496
3620.00,0.6474
3619.00,0.6450
3618.00,0.6430
3617.00,0.6414
3616.00,0.6400
3615.00,0.6388
3614.00,0.6377
3613.00,0.6370
3612.00,0.6368
3611.00,0.6370
3610.00,0.6373
3609.00,0.6375
3608.00,0.6373
3607.00,0.6370
3606.00,0.6368
3605.00,0.6369
3604.00,0.6369
3603.00,0.6369
3602.00,0.6367
3601.00,0.6363
3600.00,0.6359
3599.00,0.6353
3598.00,0.6347
3597.00,0.6341
3596.00,0.6334
3595.00,0.6327
3594.00,0.6321
3593.00,0.6320
3592.00,0.6322
3591.00,0.6322
3590.00,0.6319
3589.00,0.6313
3588.00,0.6307
3587.00,0.6304
3586.00,0.6306
3585.00,0.6307
3584.00,0.6307
3583.00,0.6308
3582.00,0.6307
3581.00,0.6305
3580.00,0.6301
3579.00,0.6295
3578.00,0.6291
3577.00,0.6289
3576.00,0.6287
3575.00,0.6286
3574.00,0.6283
3573.00,0.6281
3572.00,0.6282
3571.00,0.6285
3570.00,0.6290
3569.00,0.6292
3568.00,0.6290
3567.00,0.6287
3566.00,0.6288
3565.00,0.6293
3564.00,0.6300
3563.00,0.6305
3562.00,0.6307
3561.00,0.6309
3560.00,0.6311
3559.00,0.6315
3558.00,0.6318
3557.00,0.6321
3556.00,0.6322
3555.00,0.6322
3554.00,0.6325
3553.00,0.6330
3552.00,0.6336
3551.00,0.6340
3550.00,0.6342
3549.00,0.6343
3548.00,0.6346
3547.00,0.6352
3546.00,0.6360
3545.00,0.6367
3544.00,0.6373
3543.00,0.6379
3542.00,0.6385
3541.00,0.6390
3540.00,0.6392
3539.00,0.6392
3538.00,0.6393
3537.00,0.6396
3536.00,0.6402
3535.00,0.6407
3534.00,0.6412
3533.00,0.6416
3532.00,0.6422
3531.00,0.6429
3530.00,0.6435
3529.00,0.6441
3528.00,0.6446
3527.00,0.6451
3526.00,0.6456
3525.00,0.6459
3524.00,0.6461
3523.00,0.6465
3522.00,0.6472
3521.00,0.6479
3520.00,0.6486
3519.00,0.6491
3518.00,0.6497
3517.00,0.6506
3516.00,0.6517
3515.00,0.6528
3514.00,0.6536
3513.00,0.6540
3512.00,0.6543
3511.00,0.6547
3510.00,0.6552
3509.00,0.6558
3508.00,0.6563
3507.00,0.6569
3506.00,0.6576
3505.00,0.6585
3504.00,0.6595
3503.00,0.6604
3502.00,0.6613
3501.00,0.6621
3500.00,0.6629
3499.00,0.6638
3498.00,0.6646
3497.00,0.6653
3496.00,0.6662
3495.00,0.6671
3494.00,0.6680
3493.00,0.6686
3492.00,0.6693
3491.00,0.6700
3490.00,0.6710
3489.00,0.6723
3488.00,0.6735
3487.00,0.6743
3486.00,0.6749
3485.00,0.6754
3484.00,0.6760
3483.00,0.6769
3482.00,0.6777
3481.00,0.6785
3480.00,0.6792
3479.00,0.6800
3478.00,0.6812
3477.00,0.6824
3476.00,0.6835
3475.00,0.6843
3474.00,0.6849
3473.00,0.6856
3472.00,0.6865
3471.00,0.6874
3470.00,0.6882
3469.00,0.6890
3468.00,0.6898
3467.00,0.6906
3466.00,0.6914
3465.00,0.6922
3464.00,0.6931
3463.00,0.6944
3462.00,0.6958
3461.00,0.6971
3460.00,0.6983
3459.00,0.6994
3458.00,0.7004
3457.00,0.7014
3456.00,0.7025
3455.00,0.7037
3454.00,0.7050
3453.00,0.7063
3452.00,0.7076
3451.00,0.7089
3450.00,0.7103
3449.00,0.7119
3448.00,0.7134
3447.00,0.7148
3446.00,0.7162
3445.00,0.7178
3444.00,0.7200
3443.00,0.7225
3442.00,0.7249
3441.00,0.7271
3440.00,0.7291
3439.00,0.7311
3438.00,0.7332
3437.00,0.7351
3436.00,0.7367
3435.00,0.7378
3434.00,0.7386
3433.00,0.7394
3432.00,0.7402
3431.00,0.7411
3430.00,0.7423
3429.00,0.7438
3428.00,0.7456
3427.00,0.7474
3426.00,0.7489
3425.00,0.7502
3424.00,0.7514
3423.00,0.7524
3422.00,0.7534
3421.00,0.7544
3420.00,0.7553
3419.00,0.7562
3418.00,0.7572
3417.00,0.7583
3416.00,0.7597
3415.00,0.7611
3414.00,0.7626
3413.00,0.7641
3412.00,0.7657
3411.00,0.7673
3410.00,0.7690
3409.00,0.7705
3408.00,0.7719
3407.00,0.7729
3406.00,0.7737
3405.00,0.7743
3404.00,0.7750
3403.00,0.7759
3402.00,0.7769
3401.00,0.7781
3400.00,0.7794
3399.00,0.7811
3398.00,0.7829
3397.00,0.7848
3396.00,0.7865
3395.00,0.7878
3394.00,0.7888
3393.00,0.7895
3392.00,0.7899
3391.00,0.7902
3390.00,0.7903
3389.00,0.7905
3388.00,0.7910
3387.00,0.7918
3386.00,0.7927
3385.00,0.7936
3384.00,0.7946
3383.00,0.7955
3382.00,0.7960
3381.00,0.7964
3380.00,0.7968
3379.00,0.7974
3378.00,0.7982
3377.00,0.7990
3376.00,0.7994
3375.00,0.7996
3374.00,0.7998
3373.00,0.8002
3372.00,0.8009
3371.00,0.8016
3370.00,0.8023
3369.00,0.8027
3368.00,0.8031
3367.00,0.8036
3366.00,0.8041
3365.00,0.8049
3364.00,0.8060
3363.00,0.8072
3362.00,0.8082
3361.00,0.8088
3360.00,0.8091
3359.00,0.8096
3358.00,0.8103
3357.00,0.8110
3356.00,0.8118
3355.00,0.8127
3354.00,0.8139
3353.00,0.8153
3352.00,0.8167
3351.00,0.8176
3350.00,0.8179
3349.00,0.8179
3348.00,0.8180
3347.00,0.8184
3346.00,0.8189
3345.00,0.8195
3344.00,0.8199
3343.00,0.8205
3342.00,0.8214
3341.00,0.8225
3340.00,0.8233
3339.00,0.8236
3338.00,0.8236
3337.00,0.8237
3336.00,0.8242
3335.00,0.8248
3334.00,0.8251
3333.00,0.8252
3332.00,0.8253
3331.00,0.8257
3330.00,0.8260
3329.00,0.8259
3328.00,0.8254
3327.00,0.8247
3326.00,0.8243
3325.00,0.8242
3324.00,0.8245
3323.00,0.8249
3322.00,0.8247
3321.00,0.8239
3320.00,0.8227
3319.00,0.8216
3318.00,0.8211
3317.00,0.8209
3316.00,0.8209
3315.00,0.8209
3314.00,0.8208
3313.00,0.8206
3312.00,0.8203
3311.00,0.8198
3310.00,0.8192
3309.00,0.8185
3308.00,0.8177
3307.00,0.8169
3306.00,0.8164
3305.00,0.8160
3304.00,0.8155
3303.00,0.8149
3302.00,0.8146
3301.00,0.8143
3300.00,0.8140
3299.00,0.8133
3298.00,0.8127
3297.00,0.8125
3296.00,0.8124
3295.00,0.8120
3294.00,0.8115
3293.00,0.8112
3292.00,0.8114
3291.00,0.8119
3290.00,0.8120
3289.00,0.8117
3288.00,0.8113
3287.00,0.8112
3286.00,0.8112
3285.00,0.8109
3284.00,0.8106
3283.00,0.8105
3282.00,0.8107
3281.00,0.8111
3280.00,0.8114
3279.00,0.8117
3278.00,0.8121
3277.00,0.8126
3276.00,0.8130
3275.00,0.8131
3274.00,0.8132
3273.00,0.8135
3272.00,0.8140
3271.00,0.8146
3270.00,0.8150
3269.00,0.8151
3268.00,0.8150
3267.00,0.8148
3266.00,0.8144
3265.00,0.8141
3264.00,0.8141
3263.00,0.8145
3262.00,0.8150
3261.00,0.8154
3260.00,0.8154
3259.00,0.8152
3258.00,0.8151
3257.00,0.8155
3256.00,0.8161
3255.00,0.8163
3254.00,0.8158
3253.00,0.8149
3252.00,0.8144
3251.00,0.8144
3250.00,0.8148
3249.00,0.8151
3248.00,0.8152
3247.00,0.8148
3246.00,0.8141
3245.00,0.8132
3244.00,0.8125
3243.00,0.8120
3242.00,0.8117
3241.00,0.8115
3240.00,0.8114
3239.00,0.8112
3238.00,0.8110
3237.00,0.8105
3236.00,0.8098
3235.00,0.8092
3234.00,0.8087
3233.00,0.8084
3232.00,0.8081
3231.00,0.8077
3230.00,0.8068
3229.00,0.8057
3228.00,0.8047
3227.00,0.8039
3226.00,0.8032
3225.00,0.8024
3224.00,0.8015
3223.00,0.8006
3222.00,0.7999
3221.00,0.7991
3220.00,0.7981
3219.00,0.7972
3218.00,0.7967
3217.00,0.7965
3216.00,0.7963
3215.00,0.7958
3214.00,0.7951
3213.00,0.7941
3212.00,0.7930
3211.00,0.7919
3210.00,0.7911
3209.00,0.7907
3208.00,0.7905
3207.00,0.7903
3206.00,0.7896
3205.00,0.7886
3204.00,0.7877
3203.00,0.7869
3202.00,0.7862
3201.00,0.7854
3200.00,0.7844
3199.00,0.7835
3198.00,0.7829
3197.00,0.7825
3196.00,0.7822
3195.00,0.7815
3194.00,0.7805
3193.00,0.7795
3192.00,0.7789
3191.00,0.7783
3190.00,0.7773
3189.00,0.7758
3188.00,0.7742
3187.00,0.7731
3186.00,0.7725
3185.00,0.7723
3184.00,0.7718
3183.00,0.7710
3182.00,0.7696
3181.00,0.7682
3180.00,0.7669
3179.00,0.7659
3178.00,0.7651
3177.00,0.7644
3176.00,0.7637
3175.00,0.7630
3174.00,0.7621
3173.00,0.7607
3172.00,0.7589
3171.00,0.7574
3170.00,0.7563
3169.00,0.7556
3168.00,0.7550
3167.00,0.7542
3166.00,0.7533
3165.00,0.7524
3164.00,0.7514
3163.00,0.7503
3162.00,0.7491
3161.00,0.7478
3160.00,0.7468
3159.00,0.7460
3158.00,0.7451
3157.00,0.7438
3156.00,0.7424
3155.00,0.7413
3154.00,0.7406
3153.00,0.7400
3152.00,0.7390
3151.00,0.7379
3150.00,0.7368
3149.00,0.7358
3148.00,0.7349
3147.00,0.7340
3146.00,0.7333
3145.00,0.7325
3144.00,0.7316
3143.00,0.7307
3142.00,0.7301
3141.00,0.7295
3140.00,0.7289
3139.00,0.7283
3138.00,0.7277
3137.00,0.7273
3136.00,0.7269
3135.00,0.7262
3134.00,0.7254
3133.00,0.7248
3132.00,0.7244
3131.00,0.7243
3130.00,0.7240
3129.00,0.7235
3128.00,0.7229
3127.00,0.7225
3126.00,0.7223
3125.00,0.7222
3124.00,0.7220
3123.00,0.7218
3122.00,0.7217
3121.00,0.7216
3120.00,0.7214
3119.00,0.7211
3118.00,0.7211
3117.00,0.7216
3116.00,0.7223
3115.00,0.7228
3114.00,0.7228
3113.00,0.7226
3112.00,0.7224
3111.00,0.7225
3110.00,0.7229
3109.00,0.7236
3108.00,0.7245
3107.00,0.7254
3106.00,0.7262
3105.00,0.7269
3104.00,0.7273
3103.00,0.7278
3102.00,0.7285
3101.00,0.7296
3100.00,0.7309
3099.00,0.7318
3098.00,0.7323
3097.00,0.7327
3096.00,0.7333
3095.00,0.7342
3094.00,0.7353
3093.00,0.7364
3092.00,0.7377
3091.00,0.7391
3090.00,0.7406
3089.00,0.7422
3088.00,0.7437
3087.00,0.7454
3086.00,0.7473
3085.00,0.7497
3084.00,0.7525
3083.00,0.7553
3082.00,0.7581
3081.00,0.7607
3080.00,0.7632
3079.00,0.7660
3078.00,0.7693
3077.00,0.7729
3076.00,0.7766
3075.00,0.7800
3074.00,0.7833
3073.00,0.7865
3072.00,0.7898
3071.00,0.7932
3070.00,0.7970
3069.00,0.8014
3068.00,0.8060
3067.00,0.8106
3066.00,0.8149
3065.00,0.8188
3064.00,0.8226
3063.00,0.8263
3062.00,0.8297
3061.00,0.8328
3060.00,0.8358
3059.00,0.8387
3058.00,0.8417
3057.00,0.8447
3056.00,0.8474
3055.00,0.8497
3054.00,0.8519
3053.00,0.8545
3052.00,0.8574
3051.00,0.8604
3050.00,0.8636
3049.00,0.8668
3048.00,0.8700
3047.00,0.8733
3046.00,0.8768
3045.00,0.8806
3044.00,0.8844
3043.00,0.8881
3042.00,0.8916
3041.00,0.8953
3040.00,0.8996
3039.00,0.9045
3038.00,0.9097
3037.00,0.9150
3036.00,0.9203
3035.00,0.9257
3034.00,0.9314
3033.00,0.9374
3032.00,0.9439
3031.00,0.9511
3030.00,0.9594
3029.00,0.9683
3028.00,0.9772
3027.00,0.9856
3026.00,0.9939
3025.00,1.0024
3024.00,1.0112
3023.00,1.0205
3022.00,1.0305
3021.00,1.0411
3020.00,1.0521
3019.00,1.0631
3018.00,1.0745
3017.00,1.0867
3016.00,1.0997
3015.00,1.1133
3014.00,1.1271
3013.00,1.1409
3012.00,1.1552
3011.00,1.1707
3010.00,1.1878
3009.00,1.2062
3008.00,1.2254
3007.00,1.2452
3006.00,1.2661
3005.00,1.2883
3004.00,1.3118
3003.00,1.3364
3002.00,1.3630
3001.00,1.3922
3000.00,1.4237
2999.00,1.4567
2998.00,1.4912
2997.00,1.5281
2996.00,1.5670
2995.00,1.6067
2994.00,1.6470
2993.00,1.6906
2992.00,1.7396
2991.00,1.7928
2990.00,1.8466
2989.00,1.9008
2988.00,1.9597
2987.00,2.0273
2986.00,2.1025
2985.00,2.1806
2984.00,2.2619
2983.00,2.3548
2982.00,2.4697
2981.00,2.6110
2980.00,2.7756
2979.00,2.9571
2978.00,3.1416
2977.00,3.3029
2976.00,3.4088
2975.00,3.4673
2974.00,3.5334
2973.00,3.6550
2972.00,3.8246
2971.00,3.8667
2970.00,3.7778
2969.00,3.6145
2968.00,3.4510
2967.00,3.3315
2966.00,3.3047
2965.00,3.4218
2964.00,3.8641
2963.00,4.1357
2962.00,3.4786
2961.00,3.2497
2960.00,3.3196
2959.00,3.8416
2958.00,3.7771
2957.00,3.4815
2956.00,3.3179
2955.00,3.4391
2954.00,3.5266
2953.00,3.6159
2952.00,3.5842
2951.00,3.6032
2950.00,3.5955
2949.00,3.6581
2948.00,3.7234
2947.00,3.7380
2946.00,3.7849
2945.00,3.8518
2944.00,3.7050
2943.00,3.5154
2942.00,3.4247
2941.00,3.5469
2940.00,3.8978
2939.00,4.4016
2938.00,4.2657
2937.00,4.0934
2936.00,4.1703
2935.00,4.1826
2934.00,3.9108
2933.00,3.8068
2932.00,3.7163
2931.00,3.6161
2930.00,3.5270
2929.00,3.5475
2928.00,3.5942
2927.00,3.5175
2926.00,3.3575
2925.00,3.2622
2924.00,3.2842
2923.00,3.4255
2922.00,3.7196
2921.00,3.9474
2920.00,3.7288
2919.00,3.5774
2918.00,3.6908
2917.00,4.5249
2916.00,4.4698
2915.00,3.8022
2914.00,3.5103
2913.00,3.5519
2912.00,3.6166
2911.00,3.5736
2910.00,3.4288
2909.00,3.3388
2908.00,3.3254
2907.00,3.3793
2906.00,3.5198
2905.00,3.7481
2904.00,3.8888
2903.00,3.7933
2902.00,3.7116
2901.00,3.6484
2900.00,3.5122
2899.00,3.4004
2898.00,3.4761
2897.00,4.0505
2896.00,4.5304
2895.00,3.9364
2894.00,3.6235
2893.00,3.8092
2892.00,3.8653
2891.00,3.7532
2890.00,3.7664
2889.00,3.9327
2888.00,3.8939
2887.00,3.6673
2886.00,3.4996
2885.00,3.4155
2884.00,3.4109
2883.00,3.5430
2882.00,3.9850
2881.00,8.0000
2880.00,5.5741
2879.00,4.3001
2878.00,3.7981
2877.00,3.7550
2876.00,3.8224
2875.00,4.0008
2874.00,3.7523
2873.00,3.6215
2872.00,3.8100
2871.00,4.7266
2870.00,4.0513
2869.00,3.5794
2868.00,3.4031
2867.00,3.4913
2866.00,3.9029
2865.00,4.0465
2864.00,3.5047
2863.00,3.2382
2862.00,3.2548
2861.00,3.5002
2860.00,3.8275
2859.00,3.9758
2858.00,3.9103
2857.00,4.0976
2856.00,4.4735
2855.00,4.1105
2854.00,3.7256
2853.00,3.5731
2852.00,3.5893
2851.00,3.6715
2850.00,3.9754
2849.00,3.9172
2848.00,3.6510
2847.00,3.4668
2846.00,3.5537
2845.00,3.6842
2844.00,3.7201
2843.00,3.7380
2842.00,3.8648
2841.00,3.8239
2840.00,3.5596
2839.00,3.3432
2838.00,3.2220
2837.00,3.1395
2836.00,3.0465
2835.00,2.8946
2834.00,2.7181
2833.00,2.5595
2832.00,2.4321
2831.00,2.3216
2830.00,2.2134
2829.00,2.1030
2828.00,1.9981
2827.00,1.9067
2826.00,1.8308
2825.00,1.7665
2824.00,1.7092
2823.00,1.6572
2822.00,1.6101
2821.00,1.5665
2820.00,1.5244
2819.00,1.4836
2818.00,1.4456
2817.00,1.4121
2816.00,1.3825
2815.00,1.3553
2814.00,1.3289
2813.00,1.3032
2812.00,1.2783
2811.00,1.2546
2810.00,1.2317
2809.00,1.2097
2808.00,1.1887
2807.00,1.1687
2806.00,1.1498
2805.00,1.1316
2804.00,1.1141
2803.00,1.0973
2802.00,1.0815
2801.00,1.0668
2800.00,1.0532
2799.00,1.0406
2798.00,1.0286
2797.00,1.0167
2796.00,1.0046
2795.00,0.9925
2794.00,0.9809
2793.00,0.9699
2792.00,0.9596
2791.00,0.9497
2790.00,0.9401
2789.00,0.9307
2788.00,0.9214
2787.00,0.9124
2786.00,0.9038
2785.00,0.8956
2784.00,0.8877
2783.00,0.8797
2782.00,0.8718
2781.00,0.8640
2780.00,0.8566
2779.00,0.8494
2778.00,0.8422
2777.00,0.8354
2776.00,0.8294
2775.00,0.8240
2774.00,0.8190
2773.00,0.8142
2772.00,0.8094
2771.00,0.8049
2770.00,0.8008
2769.00,0.7973
2768.00,0.7942
2767.00,0.7912
2766.00,0.7881
2765.00,0.7851
2764.00,0.7825
2763.00,0.7806
2762.00,0.7791
2761.00,0.7779
2760.00,0.7766
2759.00,0.7753
2758.00,0.7740
2757.00,0.7726
2756.00,0.7713
2755.00,0.7701
2754.00,0.7691
2753.00,0.7681
2752.00,0.7675
2751.00,0.7674
2750.00,0.7677
2749.00,0.7682
2748.00,0.7687
2747.00,0.7690
2746.00,0.7695
2745.00,0.7705
2744.00,0.7718
2743.00,0.7734
2742.00,0.7750
2741.00,0.7769
2740.00,0.7793
2739.00,0.7822
2738.00,0.7856
2737.00,0.7894
2736.00,0.7933
2735.00,0.7971
2734.00,0.8009
2733.00,0.8048
2732.00,0.8088
2731.00,0.8124
2730.00,0.8151
2729.00,0.8169
2728.00,0.8176
2727.00,0.8172
2726.00,0.8156
2725.00,0.8134
2724.00,0.8109
2723.00,0.8086
2722.00,0.8062
2721.00,0.8035
2720.00,0.8005
2719.00,0.7973
2718.00,0.7939
2717.00,0.7903
2716.00,0.7863
2715.00,0.7822
2714.00,0.7780
2713.00,0.7739
2712.00,0.7699
2711.00,0.7662
2710.00,0.7629
2709.00,0.7601
2708.00,0.7581
2707.00,0.7565
2706.00,0.7551
2705.00,0.7534
2704.00,0.7516
2703.00,0.7501
2702.00,0.7491
2701.00,0.7486
2700.00,0.7482
2699.00,0.7479
2698.00,0.7479
2697.00,0.7483
2696.00,0.7491
2695.00,0.7503
2694.00,0.7518
2693.00,0.7535
2692.00,0.7552
2691.00,0.7566
2690.00,0.7577
2689.00,0.7585
2688.00,0.7590
2687.00,0.7595
2686.00,0.7601
2685.00,0.7607
2684.00,0.7612
2683.00,0.7615
2682.00,0.7617
2681.00,0.7616
2680.00,0.7614
2679.00,0.7612
2678.00,0.7610
2677.00,0.7609
2676.00,0.7607
2675.00,0.7603
2674.00,0.7598
2673.00,0.7593
2672.00,0.7589
2671.00,0.7584
2670.00,0.7575
