Created as New Dataset,
cm-1,A
4000.00,0.4224
3999.00,0.4221
3998.00,0.4219
3997.00,0.4217
3996.00,0.4215
3995.00,0.4213
3994.00,0.4211
3993.00,0.4208
3992.00,0.4205
3991.00,0.4201
3990.00,0.4196
3989.00,0.4192
3988.00,0.4187
3987.00,0.4182
3986.00,0.4177
3985.00,0.4173
3984.00,0.4169
3983.00,0.4165
3982.00,0.4160
3981.00,0.4156
3980.00,0.4152
3979.00,0.4148
3978.00,0.4144
3977.00,0.4140
3976.00,0.4135
3975.00,0.4131
3974.00,0.4127
3973.00,0.4123
3972.00,0.4119
3971.00,0.4115
3970.00,0.4111
3969.00,0.4107
3968.00,0.4104
3967.00,0.4101
3966.00,0.4098
3965.00,0.4094
3964.00,0.4090
3963.00,0.4086
3962.00,0.4083
3961.00,0.4081
3960.00,0.4079
3959.00,0.4077
3958.00,0.4074
3957.00,0.4072
3956.00,0.4069
3955.00,0.4067
3954.00,0.4066
3953.00,0.4064
3952.00,0.4063
3951.00,0.4062
3950.00,0.4061
3949.00,0.4060
3948.00,0.4058
3947.00,0.4057
3946.00,0.4056
3945.00,0.4056
3944.00,0.4055
3943.00,0.4054
3942.00,0.4054
3941.00,0.4054
3940.00,0.4054
3939.00,0.4053
3938.00,0.4052
3937.00,0.4051
3936.00,0.4050
3935.00,0.4050
3934.00,0.4049
3933.00,0.4048
3932.00,0.4047
3931.00,0.4047
3930.00,0.4046
3929.00,0.4046
3928.00,0.4045
3927.00,0.4045
3926.00,0.4044
3925.00,0.4043
3924.00,0.4042
3923.00,0.4042
3922.00,0.4041
3921.00,0.4041
3920.00,0.4040
3919.00,0.4040
3918.00,0.4040
3917.00,0.4040
3916.00,0.4039
3915.00,0.4038
3914.00,0.4038
3913.00,0.4037
3912.00,0.4036
3911.00,0.4035
3910.00,0.4034
3909.00,0.4033
3908.00,0.4033
3907.00,0.4032
3906.00,0.4031
3905.00,0.4029
3904.00,0.4027
3903.00,0.4024
3902.00,0.4023
3901.00,0.4022
3900.00,0.4021
3899.00,0.4020
3898.00,0.4020
3897.00,0.4019
3896.00,0.4017
3895.00,0.4015
3894.00,0.4013
3893.00,0.4011
3892.00,0.4009
3891.00,0.4007
3890.00,0.4005
3889.00,0.4004
3888.00,0.4003
3887.00,0.4000
3886.00,0.3997
3885.00,0.3993
3884.00,0.3992
3883.00,0.3993
3882.00,0.3992
3881.00,0.3990
3880.00,0.3988
3879.00,0.3988
3878.00,0.3988
3877.00,0.3988
3876.00,0.3985
3875.00,0.3983
3874.00,0.3982
3873.00,0.3982
3872.00,0.3983
3871.00,0.3981
3870.00,0.3979
3869.00,0.3977
3868.00,0.3977
3867.00,0.3979
3866.00,0.3979
3865.00,0.3977
3864.00,0.3977
3863.00,0.3977
3862.00,0.3977
3861.00,0.3975
3860.00,0.3973
3859.00,0.3971
3858.00,0.3970
3857.00,0.3971
3856.00,0.3973
3855.00,0.3975
3854.00,0.3973
3853.00,0.3970
3852.00,0.3970
3851.00,0.3973
3850.00,0.3973
3849.00,0.3969
3848.00,0.3964
3847.00,0.3962
3846.00,0.3962
3845.00,0.3961
3844.00,0.3960
3843.00,0.3958
3842.00,0.3957
3841.00,0.3957
3840.00,0.3957
3839.00,0.3956
3838.00,0.3955
3837.00,0.3954
3836.00,0.3954
3835.00,0.3954
3834.00,0.3953
3833.00,0.3952
3832.00,0.3950
3831.00,0.3949
3830.00,0.3948
3829.00,0.3947
3828.00,0.3945
3827.00,0.3943
3826.00,0.3941
3825.00,0.3940
3824.00,0.3940
3823.00,0.3939
3822.00,0.3935
3821.00,0.3932
3820.00,0.3930
3819.00,0.3930
3818.00,0.3930
3817.00,0.3927
3816.00,0.3923
3815.00,0.3921
3814.00,0.3921
3813.00,0.3920
3812.00,0.3916
3811.00,0.3912
3810.00,0.3909
3809.00,0.3908
3808.00,0.3907
3807.00,0.3902
3806.00,0.3898
3805.00,0.3895
3804.00,0.3894
3803.00,0.3892
3802.00,0.3888
3801.00,0.3885
3800.00,0.3885
3799.00,0.3885
3798.00,0.3884
3797.00,0.3880
3796.00,0.3877
3795.00,0.3876
3794.00,0.3877
3793.00,0.3877
3792.00,0.3875
3791.00,0.3873
3790.00,0.3872
3789.00,0.3871
3788.00,0.3870
3787.00,0.3869
3786.00,0.3867
3785.00,0.3864
3784.00,0.3861
3783.00,0.3859
3782.00,0.3857
3781.00,0.3855
3780.00,0.3854
3779.00,0.3853
3778.00,0.3852
3777.00,0.3851
3776.00,0.3850
3775.00,0.3847
3774.00,0.3845
3773.00,0.3844
3772.00,0.3843
3771.00,0.3843
3770.00,0.3841
3769.00,0.3840
3768.00,0.3840
3767.00,0.3839
3766.00,0.3837
3765.00,0.3835
3764.00,0.3835
3763.00,0.3836
3762.00,0.3835
3761.00,0.3834
3760.00,0.3832
3759.00,0.3831
3758.00,0.3831
3757.00,0.3829
3756.00,0.3828
3755.00,0.3827
3754.00,0.3826
3753.00,0.3826
3752.00,0.3826
3751.00,0.3824
3750.00,0.3822
3749.00,0.3820
3748.00,0.3820
3747.00,0.3820
3746.00,0.3819
3745.00,0.3817
3744.00,0.3815
3743.00,0.3815
3742.00,0.3818
3741.00,0.3816
3740.00,0.3811
3739.00,0.3806
3738.00,0.3805
3737.00,0.3805
3736.00,0.3802
3735.00,0.3800
3734.00,0.3799
3733.00,0.3800
3732.00,0.3799
3731.00,0.3799
3730.00,0.3799
3729.00,0.3798
3728.00,0.3797
3727.00,0.3795
3726.00,0.3794
3725.00,0.3793
3724.00,0.3793
3723.00,0.3792
3722.00,0.3790
3721.00,0.3789
3720.00,0.3789
3719.00,0.3789
3718.00,0.3789
3717.00,0.3788
3716.00,0.3787
3715.00,0.3787
3714.00,0.3787
3713.00,0.3787
3712.00,0.3787
3711.00,0.3787
3710.00,0.3787
3709.00,0.3787
3708.00,0.3788
3707.00,0.3788
3706.00,0.3788
3705.00,0.3789
3704.00,0.3789
3703.00,0.3790
3702.00,0.3790
3701.00,0.3792
3700.00,0.3794
3699.00,0.3796
3698.00,0.3798
3697.00,0.3799
3696.00,0.3801
3695.00,0.3803
3694.00,0.3805
3693.00,0.3805
3692.00,0.3806
3691.00,0.3807
3690.00,0.3808
3689.00,0.3808
3688.00,0.3808
3687.00,0.3808
3686.00,0.3810
3685.00,0.3810
3684.00,0.3809
3683.00,0.3808
3682.00,0.3808
3681.00,0.3808
3680.00,0.3809
3679.00,0.3809
3678.00,0.3812
3677.00,0.3814
3676.00,0.3815
3675.00,0.3816
3674.00,0.3818
3673.00,0.3823
3672.00,0.3825
3671.00,0.3825
3670.00,0.3826
3669.00,0.3829
3668.00,0.3833
3667.00,0.3836
3666.00,0.3836
3665.00,0.3836
3664.00,0.3837
3663.00,0.3840
3662.00,0.3843
3661.00,0.3846
3660.00,0.3849
3659.00,0.3853
3658.00,0.3858
3657.00,0.3864
3656.00,0.3870
3655.00,0.3878
3654.00,0.3887
3653.00,0.3895
3652.00,0.3903
3651.00,0.3911
3650.00,0.3919
3649.00,0.3925
3648.00,0.3930
3647.00,0.3934
3646.00,0.3937
3645.00,0.3938
3644.00,0.3936
3643.00,0.3933
3642.00,0.3928
3641.00,0.3924
3640.00,0.3919
3639.00,0.3913
3638.00,0.3908
3637.00,0.3903
3636.00,0.3900
3635.00,0.3896
3634.00,0.3893
3633.00,0.3890
3632.00,0.3889
3631.00,0.3889
3630.00,0.3888
3629.00,0.3886
3628.00,0.3884
3627.00,0.3885
3626.00,0.3886
3625.00,0.3884
3624.00,0.3882
3623.00,0.3882
3622.00,0.3884
3621.00,0.3885
3620.00,0.3885
3619.00,0.3885
3618.00,0.3885
3617.00,0.3887
3616.00,0.3890
3615.00,0.3892
3614.00,0.3894
3613.00,0.3897
3612.00,0.3899
3611.00,0.3902
3610.00,0.3903
3609.00,0.3904
3608.00,0.3904
3607.00,0.3905
3606.00,0.3905
3605.00,0.3904
3604.00,0.3900
3603.00,0.3894
3602.00,0.3887
3601.00,0.3879
3600.00,0.3871
3599.00,0.3861
3598.00,0.3852
3597.00,0.3843
3596.00,0.3834
3595.00,0.3826
3594.00,0.3819
3593.00,0.3813
3592.00,0.3808
3591.00,0.3803
3590.00,0.3799
3589.00,0.3796
3588.00,0.3793
3587.00,0.3790
3586.00,0.3788
3585.00,0.3787
3584.00,0.3786
3583.00,0.3786
3582.00,0.3786
3581.00,0.3786
3580.00,0.3787
3579.00,0.3787
3578.00,0.3787
3577.00,0.3788
3576.00,0.3789
3575.00,0.3790
3574.00,0.3792
3573.00,0.3793
3572.00,0.3794
3571.00,0.3795
3570.00,0.3796
3569.00,0.3796
3568.00,0.3797
3567.00,0.3798
3566.00,0.3799
3565.00,0.3800
3564.00,0.3800
3563.00,0.3800
3562.00,0.3799
3561.00,0.3799
3560.00,0.3800
3559.00,0.3801
3558.00,0.3801
3557.00,0.3801
3556.00,0.3801
3555.00,0.3802
3554.00,0.3802
3553.00,0.3803
3552.00,0.3803
3551.00,0.3804
3550.00,0.3805
3549.00,0.3805
3548.00,0.3806
3547.00,0.3807
3546.00,0.3808
3545.00,0.3810
3544.00,0.3811
3543.00,0.3813
3542.00,0.3814
3541.00,0.3816
3540.00,0.3817
3539.00,0.3819
3538.00,0.3821
3537.00,0.3823
3536.00,0.3824
3535.00,0.3824
3534.00,0.3825
3533.00,0.3825
3532.00,0.3826
3531.00,0.3826
3530.00,0.3827
3529.00,0.3827
3528.00,0.3827
3527.00,0.3827
3526.00,0.3827
3525.00,0.3827
3524.00,0.3827
3523.00,0.3827
3522.00,0.3827
3521.00,0.3828
3520.00,0.3828
3519.00,0.3828
3518.00,0.3828
3517.00,0.3828
3516.00,0.3829
3515.00,0.3829
3514.00,0.3829
3513.00,0.3830
3512.00,0.3832
3511.00,0.3833
3510.00,0.3835
3509.00,0.3837
3508.00,0.3839
3507.00,0.3841
3506.00,0.3843
3505.00,0.3845
3504.00,0.3848
3503.00,0.3850
3502.00,0.3853
3501.00,0.3857
3500.00,0.3860
3499.00,0.3864
3498.00,0.3867
3497.00,0.3871
3496.00,0.3874
3495.00,0.3878
3494.00,0.3881
3493.00,0.3885
3492.00,0.3889
3491.00,0.3893
3490.00,0.3896
3489.00,0.3900
3488.00,0.3903
3487.00,0.3907
3486.00,0.3911
3485.00,0.3915
3484.00,0.3919
3483.00,0.3923
3482.00,0.3927
3481.00,0.3932
3480.00,0.3937
3479.00,0.3942
3478.00,0.3948
3477.00,0.3954
3476.00,0.3961
3475.00,0.3968
3474.00,0.3975
3473.00,0.3982
3472.00,0.3990
3471.00,0.3999
3470.00,0.4008
3469.00,0.4017
3468.00,0.4026
3467.00,0.4034
3466.00,0.4042
3465.00,0.4051
3464.00,0.4061
3463.00,0.4071
3462.00,0.4081
3461.00,0.4090
3460.00,0.4099
3459.00,0.4108
3458.00,0.4117
3457.00,0.4126
3456.00,0.4135
3455.00,0.4143
3454.00,0.4149
3453.00,0.4155
3452.00,0.4160
3451.00,0.4164
3450.00,0.4168
3449.00,0.4171
3448.00,0.4174
3447.00,0.4176
3446.00,0.4177
3445.00,0.4177
3444.00,0.4177
3443.00,0.4177
3442.00,0.4177
3441.00,0.4176
3440.00,0.4176
3439.00,0.4175
3438.00,0.4174
3437.00,0.4173
3436.00,0.4172
3435.00,0.4170
3434.00,0.4169
3433.00,0.4168
3432.00,0.4168
3431.00,0.4168
3430.00,0.4168
3429.00,0.4168
3428.00,0.4169
3427.00,0.4172
3426.00,0.4175
3425.00,0.4180
3424.00,0.4185
3423.00,0.4191
3422.00,0.4197
3421.00,0.4204
3420.00,0.4211
3419.00,0.4219
3418.00,0.4228
3417.00,0.4239
3416.00,0.4252
3415.00,0.4265
3414.00,0.4280
3413.00,0.4295
3412.00,0.4311
3411.00,0.4328
3410.00,0.4347
3409.00,0.4369
3408.00,0.4392
3407.00,0.4417
3406.00,0.4444
3405.00,0.4474
3404.00,0.4505
3403.00,0.4539
3402.00,0.4575
3401.00,0.4613
3400.00,0.4652
3399.00,0.4693
3398.00,0.4737
3397.00,0.4782
3396.00,0.4829
3395.00,0.4876
3394.00,0.4924
3393.00,0.4974
3392.00,0.5025
3391.00,0.5078
3390.00,0.5132
3389.00,0.5188
3388.00,0.5245
3387.00,0.5302
3386.00,0.5360
3385.00,0.5420
3384.00,0.5481
3383.00,0.5544
3382.00,0.5609
3381.00,0.5676
3380.00,0.5745
3379.00,0.5816
3378.00,0.5890
3377.00,0.5966
3376.00,0.6046
3375.00,0.6127
3374.00,0.6210
3373.00,0.6296
3372.00,0.6385
3371.00,0.6476
3370.00,0.6570
3369.00,0.6666
3368.00,0.6764
3367.00,0.6864
3366.00,0.6966
3365.00,0.7069
3364.00,0.7172
3363.00,0.7274
3362.00,0.7375
3361.00,0.7475
3360.00,0.7574
3359.00,0.7671
3358.00,0.7767
3357.00,0.7862
3356.00,0.7957
3355.00,0.8049
3354.00,0.8139
3353.00,0.8226
3352.00,0.8310
3351.00,0.8394
3350.00,0.8477
3349.00,0.8560
3348.00,0.8643
3347.00,0.8726
3346.00,0.8808
3345.00,0.8891
3344.00,0.8975
3343.00,0.9061
3342.00,0.9147
3341.00,0.9234
3340.00,0.9320
3339.00,0.9407
3338.00,0.9496
3337.00,0.9586
3336.00,0.9678
3335.00,0.9768
3334.00,0.9853
3333.00,0.9933
3332.00,1.0004
3331.00,1.0066
3330.00,1.0117
3329.00,1.0156
3328.00,1.0184
3327.00,1.0200
3326.00,1.0209
3325.00,1.0213
3324.00,1.0216
3323.00,1.0220
3322.00,1.0231
3321.00,1.0249
3320.00,1.0274
3319.00,1.0310
3318.00,1.0355
3317.00,1.0412
3316.00,1.0480
3315.00,1.0557
3314.00,1.0646
3313.00,1.0748
3312.00,1.0863
3311.00,1.0989
3310.00,1.1125
3309.00,1.1269
3308.00,1.1422
3307.00,1.1581
3306.00,1.1749
3305.00,1.1923
3304.00,1.2101
3303.00,1.2280
3302.00,1.2457
3301.00,1.2630
3300.00,1.2795
3299.00,1.2951
3298.00,1.3096
3297.00,1.3226
3296.00,1.3333
3295.00,1.3409
3294.00,1.3455
3293.00,1.3470
3292.00,1.3454
3291.00,1.3404
3290.00,1.3317
3289.00,1.3191
3288.00,1.3025
3287.00,1.2822
3286.00,1.2586
3285.00,1.2325
3284.00,1.2041
3283.00,1.1740
3282.00,1.1428
3281.00,1.1112
3280.00,1.0796
3279.00,1.0486
3278.00,1.0182
3277.00,0.9887
3276.00,0.9601
3275.00,0.9327
3274.00,0.9067
3273.00,0.8823
3272.00,0.8595
3271.00,0.8381
3270.00,0.8182
3269.00,0.7997
3268.00,0.7825
3267.00,0.7664
3266.00,0.7514
3265.00,0.7374
3264.00,0.7244
3263.00,0.7122
3262.00,0.7009
3261.00,0.6903
3260.00,0.6803
3259.00,0.6709
3258.00,0.6621
3257.00,0.6539
3256.00,0.6462
3255.00,0.6388
3254.00,0.6319
3253.00,0.6254
3252.00,0.6195
3251.00,0.6139
3250.00,0.6087
3249.00,0.6040
3248.00,0.5996
3247.00,0.5955
3246.00,0.5916
3245.00,0.5879
3244.00,0.5845
3243.00,0.5814
3242.00,0.5785
3241.00,0.5759
3240.00,0.5733
3239.00,0.5709
3238.00,0.5686
3237.00,0.5663
3236.00,0.5640
3235.00,0.5618
3234.00,0.5596
3233.00,0.5575
3232.00,0.5555
3231.00,0.5535
3230.00,0.5516
3229.00,0.5496
3228.00,0.5477
3227.00,0.5458
3226.00,0.5438
3225.00,0.5420
3224.00,0.5401
3223.00,0.5383
3222.00,0.5366
3221.00,0.5349
3220.00,0.5333
3219.00,0.5318
3218.00,0.5304
3217.00,0.5291
3216.00,0.5278
3215.00,0.5266
3214.00,0.5254
3213.00,0.5244
3212.00,0.5234
3211.00,0.5224
3210.00,0.5214
3209.00,0.5205
3208.00,0.5196
3207.00,0.5187
3206.00,0.5179
3205.00,0.5171
3204.00,0.5164
3203.00,0.5156
3202.00,0.5149
3201.00,0.5142
3200.00,0.5135
3199.00,0.5128
3198.00,0.5120
3197.00,0.5111
3196.00,0.5103
3195.00,0.5094
3194.00,0.5085
3193.00,0.5076
3192.00,0.5067
3191.00,0.5059
3190.00,0.5051
3189.00,0.5044
3188.00,0.5038
3187.00,0.5031
3186.00,0.5025
3185.00,0.5020
3184.00,0.5015
3183.00,0.5012
3182.00,0.5008
3181.00,0.5006
3180.00,0.5003
3179.00,0.5000
3178.00,0.4997
3177.00,0.4995
3176.00,0.4993
3175.00,0.4991
3174.00,0.4989
3173.00,0.4986
3172.00,0.4985
3171.00,0.4984
3170.00,0.4983
3169.00,0.4983
3168.00,0.4982
3167.00,0.4981
3166.00,0.4979
3165.00,0.4979
3164.00,0.4979
3163.00,0.4979
3162.00,0.4979
3161.00,0.4979
3160.00,0.4980
3159.00,0.4981
3158.00,0.4982
3157.00,0.4983
3156.00,0.4985
3155.00,0.4988
3154.00,0.4992
3153.00,0.4996
3152.00,0.5002
3151.00,0.5008
3150.00,0.5016
3149.00,0.5024
3148.00,0.5032
3147.00,0.5040
3146.00,0.5050
3145.00,0.5061
3144.00,0.5074
3143.00,0.5088
3142.00,0.5102
3141.00,0.5118
3140.00,0.5134
3139.00,0.5152
3138.00,0.5172
3137.00,0.5192
3136.00,0.5214
3135.00,0.5238
3134.00,0.5262
3133.00,0.5287
3132.00,0.5312
3131.00,0.5338
3130.00,0.5364
3129.00,0.5391
3128.00,0.5419
3127.00,0.5446
3126.00,0.5472
3125.00,0.5497
3124.00,0.5521
3123.00,0.5544
3122.00,0.5566
3121.00,0.5586
3120.00,0.5606
3119.00,0.5624
3118.00,0.5642
3117.00,0.5660
3116.00,0.5678
3115.00,0.5696
3114.00,0.5714
3113.00,0.5733
3112.00,0.5752
3111.00,0.5771
3110.00,0.5790
3109.00,0.5810
3108.00,0.5829
3107.00,0.5847
3106.00,0.5864
3105.00,0.5879
3104.00,0.5892
3103.00,0.5901
3102.00,0.5907
3101.00,0.5910
3100.00,0.5908
3099.00,0.5901
3098.00,0.5891
3097.00,0.5878
3096.00,0.5861
3095.00,0.5842
3094.00,0.5822
3093.00,0.5800
3092.00,0.5778
3091.00,0.5757
3090.00,0.5736
3089.00,0.5718
3088.00,0.5701
3087.00,0.5686
3086.00,0.5674
3085.00,0.5665
3084.00,0.5659
3083.00,0.5655
3082.00,0.5655
3081.00,0.5656
3080.00,0.5660
3079.00,0.5665
3078.00,0.5672
3077.00,0.5682
3076.00,0.5695
3075.00,0.5710
3074.00,0.5727
3073.00,0.5746
3072.00,0.5765
3071.00,0.5785
3070.00,0.5805
3069.00,0.5824
3068.00,0.5845
3067.00,0.5865
3066.00,0.5886
3065.00,0.5907
3064.00,0.5928
3063.00,0.5949
3062.00,0.5972
3061.00,0.5997
3060.00,0.6023
3059.00,0.6051
3058.00,0.6081
3057.00,0.6112
3056.00,0.6146
3055.00,0.6182
3054.00,0.6221
3053.00,0.6261
3052.00,0.6301
3051.00,0.6340
3050.00,0.6377
3049.00,0.6412
3048.00,0.6446
3047.00,0.6480
3046.00,0.6518
3045.00,0.6560
3044.00,0.6606
3043.00,0.6657
3042.00,0.6710
3041.00,0.6765
3040.00,0.6820
3039.00,0.6875
3038.00,0.6929
3037.00,0.6983
3036.00,0.7038
3035.00,0.7097
3034.00,0.7160
3033.00,0.7227
3032.00,0.7298
3031.00,0.7370
3030.00,0.7440
3029.00,0.7503
3028.00,0.7557
3027.00,0.7600
3026.00,0.7635
3025.00,0.7664
3024.00,0.7694
3023.00,0.7728
3022.00,0.7769
3021.00,0.7820
3020.00,0.7881
3019.00,0.7953
3018.00,0.8036
3017.00,0.8129
3016.00,0.8231
3015.00,0.8340
3014.00,0.8456
3013.00,0.8579
3012.00,0.8707
3011.00,0.8842
3010.00,0.8983
3009.00,0.9129
3008.00,0.9276
3007.00,0.9425
3006.00,0.9578
3005.00,0.9735
3004.00,0.9896
3003.00,1.0063
3002.00,1.0237
3001.00,1.0419
3000.00,1.0615
2999.00,1.0826
2998.00,1.1055
2997.00,1.1307
2996.00,1.1583
2995.00,1.1888
2994.00,1.2225
2993.00,1.2598
2992.00,1.3010
2991.00,1.3461
2990.00,1.3955
2989.00,1.4492
2988.00,1.5076
2987.00,1.5710
2986.00,1.6403
2985.00,1.7165
2984.00,1.8004
2983.00,1.8928
2982.00,1.9940
2981.00,2.1044
2980.00,2.2246
2979.00,2.3554
2978.00,2.4975
2977.00,2.6518
2976.00,2.8234
2975.00,3.0257
2974.00,3.2776
2973.00,3.5872
2972.00,3.8645
2971.00,3.9751
2970.00,4.0297
2969.00,4.2119
2968.00,4.6520
2967.00,4.2573
2966.00,3.9677
2965.00,3.8062
2964.00,3.8536
2963.00,4.0114
2962.00,4.2821
2961.00,4.4628
2960.00,4.3758
2959.00,4.3591
2958.00,4.5943
2957.00,4.3196
2956.00,4.0334
2955.00,3.8622
2954.00,3.8449
2953.00,3.8758
2952.00,3.9289
2951.00,3.9580
2950.00,3.9552
2949.00,3.9709
2948.00,4.0704
2947.00,4.2233
2946.00,4.3881
2945.00,4.6267
2944.00,4.6405
2943.00,4.3017
2942.00,4.0456
2941.00,3.9432
2940.00,3.9892
2939.00,4.1518
2938.00,4.4088
2937.00,4.7734
2936.00,4.6983
2935.00,4.3043
2934.00,4.0687
2933.00,3.9866
2932.00,4.0629
2931.00,4.2772
2930.00,4.6001
2929.00,4.6501
2928.00,4.3526
2927.00,4.2399
2926.00,4.3392
2925.00,4.5616
2924.00,4.5712
2923.00,4.5126
2922.00,4.1918
2921.00,4.0410
2920.00,4.0088
2919.00,4.2786
2918.00,4.1507
2917.00,3.8866
2916.00,3.7434
2915.00,3.8192
2914.00,4.0356
2913.00,4.3398
2912.00,4.5342
2911.00,4.2985
2910.00,4.1221
2909.00,4.1359
2908.00,4.2400
2907.00,4.3063
2906.00,4.3636
2905.00,4.5328
2904.00,4.7794
2903.00,4.6382
2902.00,4.3841
2901.00,4.1824
2900.00,4.0931
2899.00,4.0636
2898.00,3.9851
2897.00,3.8851
2896.00,3.8179
2895.00,3.8178
2894.00,3.8656
2893.00,4.0134
2892.00,4.4417
2891.00,4.7738
2890.00,4.8310
2889.00,4.6923
2888.00,4.2827
2887.00,3.9825
2886.00,3.8157
2885.00,3.8443
2884.00,3.9612
2883.00,4.1493
2882.00,4.1771
2881.00,4.1012
2880.00,4.1240
2879.00,4.3589
2878.00,4.5532
2877.00,4.4106
2876.00,4.1558
2875.00,3.9960
2874.00,3.9244
2873.00,3.9407
2872.00,3.9812
2871.00,3.9950
2870.00,3.9392
2869.00,3.8465
2868.00,3.7916
2867.00,3.8208
2866.00,3.9854
2865.00,4.4098
2864.00,4.2323
2863.00,3.9216
2862.00,3.6867
2861.00,3.6733
2860.00,3.7753
2859.00,4.0594
2858.00,4.3445
2857.00,4.3199
2856.00,4.2946
2855.00,4.4280
2854.00,4.4562
2853.00,4.4992
2852.00,4.5129
2851.00,4.2969
2850.00,4.1547
2849.00,4.3638
2848.00,4.4601
2847.00,4.1259
2846.00,3.9344
2845.00,3.9669
2844.00,4.0710
2843.00,3.9680
2842.00,3.8150
2841.00,3.6478
2840.00,3.4548
2839.00,3.2248
2838.00,2.9993
2837.00,2.7903
2836.00,2.5983
2835.00,2.4258
2834.00,2.2733
2833.00,2.1391
2832.00,2.0202
2831.00,1.9138
2830.00,1.8182
2829.00,1.7328
2828.00,1.6569
2827.00,1.5897
2826.00,1.5299
2825.00,1.4762
2824.00,1.4277
2823.00,1.3835
2822.00,1.3428
2821.00,1.3051
2820.00,1.2700
2819.00,1.2372
2818.00,1.2066
2817.00,1.1781
2816.00,1.1514
2815.00,1.1264
2814.00,1.1025
2813.00,1.0798
2812.00,1.0580
2811.00,1.0374
2810.00,1.0179
2809.00,0.9994
2808.00,0.9818
2807.00,0.9648
2806.00,0.9485
2805.00,0.9328
2804.00,0.9176
2803.00,0.9031
2802.00,0.8892
2801.00,0.8760
2800.00,0.8633
2799.00,0.8511
2798.00,0.8396
2797.00,0.8285
2796.00,0.8178
2795.00,0.8075
2794.00,0.7975
2793.00,0.7878
2792.00,0.7782
2791.00,0.7688
2790.00,0.7593
2789.00,0.7499
2788.00,0.7405
2787.00,0.7313
2786.00,0.7222
2785.00,0.7131
2784.00,0.7042
2783.00,0.6955
2782.00,0.6870
2781.00,0.6788
2780.00,0.6709
2779.00,0.6635
2778.00,0.6564
2777.00,0.6497
2776.00,0.6434
2775.00,0.6374
2774.00,0.6318
2773.00,0.6267
2772.00,0.6218
2771.00,0.6173
2770.00,0.6131
2769.00,0.6093
2768.00,0.6059
2767.00,0.6028
2766.00,0.6000
2765.00,0.5976
2764.00,0.5953
2763.00,0.5933
2762.00,0.5915
2761.00,0.5899
2760.00,0.5885
2759.00,0.5871
2758.00,0.5858
2757.00,0.5848
2756.00,0.5839
2755.00,0.5832
2754.00,0.5826
2753.00,0.5822
2752.00,0.5819
2751.00,0.5818
2750.00,0.5820
2749.00,0.5823
2748.00,0.5829
2747.00,0.5838
2746.00,0.5849
2745.00,0.5861
2744.00,0.5875
2743.00,0.5890
2742.00,0.5908
2741.00,0.5929
2740.00,0.5951
2739.00,0.5976
2738.00,0.6002
2737.00,0.6030
2736.00,0.6060
2735.00,0.6091
2734.00,0.6120
2733.00,0.6146
2732.00,0.6167
2731.00,0.6182
2730.00,0.6188
2729.00,0.6184
2728.00,0.6171
2727.00,0.6150
2726.00,0.6124
2725.00,0.6096
2724.00,0.6068
2723.00,0.6040
2722.00,0.6013
2721.00,0.5987
2720.00,0.5962
2719.00,0.5937
2718.00,0.5912
2717.00,0.5886
2716.00,0.5859
2715.00,0.5830
2714.00,0.5800
2713.00,0.5771
2712.00,0.5742
2711.00,0.5715
2710.00,0.5689
2709.00,0.5666
2708.00,0.5646
2707.00,0.5629
2706.00,0.5615
2705.00,0.5604
2704.00,0.5596
2703.00,0.5589
2702.00,0.5586
2701.00,0.5585
2700.00,0.5587
2699.00,0.5592
2698.00,0.5599
2697.00,0.5608
2696.00,0.5620
2695.00,0.5633
2694.00,0.5648
2693.00,0.5664
2692.00,0.5680
2691.00,0.5695
2690.00,0.5708
2689.00,0.5720
2688.00,0.5731
2687.00,0.5741
2686.00,0.5749
2685.00,0.5755
2684.00,0.5759
2683.00,0.5763
2682.00,0.5767
2681.00,0.5769
2680.00,0.5771
2679.00,0.5772
2678.00,0.5773
2677.00,0.5774
2676.00,0.5776
2675.00,0.5778
2674.00,0.5780
2673.00,0.5782
2672.00,0.5783
2671.00,0.5783
2670.00,0.5780
