Created as New Dataset,
cm-1,A
4000.00,0.3859
3999.00,0.3860
3998.00,0.3860
3997.00,0.3860
3996.00,0.3859
3995.00,0.3858
3994.00,0.3856
3993.00,0.3854
3992.00,0.3851
3991.00,0.3848
3990.00,0.3844
3989.00,0.3839
3988.00,0.3834
3987.00,0.3829
3986.00,0.3824
3985.00,0.3819
3984.00,0.3815
3983.00,0.3810
3982.00,0.3806
3981.00,0.3802
3980.00,0.3797
3979.00,0.3792
3978.00,0.3788
3977.00,0.3783
3976.00,0.3780
3975.00,0.3777
3974.00,0.3774
3973.00,0.3771
3972.00,0.3768
3971.00,0.3765
3970.00,0.3761
3969.00,0.3757
3968.00,0.3754
3967.00,0.3750
3966.00,0.3745
3965.00,0.3741
3964.00,0.3736
3963.00,0.3732
3962.00,0.3727
3961.00,0.3722
3960.00,0.3718
3959.00,0.3713
3958.00,0.3708
3957.00,0.3704
3956.00,0.3701
3955.00,0.3697
3954.00,0.3694
3953.00,0.3691
3952.00,0.3688
3951.00,0.3686
3950.00,0.3683
3949.00,0.3680
3948.00,0.3677
3947.00,0.3674
3946.00,0.3671
3945.00,0.3668
3944.00,0.3665
3943.00,0.3662
3942.00,0.3660
3941.00,0.3658
3940.00,0.3657
3939.00,0.3655
3938.00,0.3654
3937.00,0.3652
3936.00,0.3651
3935.00,0.3650
3934.00,0.3649
3933.00,0.3648
3932.00,0.3648
3931.00,0.3647
3930.00,0.3647
3929.00,0.3647
3928.00,0.3647
3927.00,0.3647
3926.00,0.3646
3925.00,0.3645
3924.00,0.3644
3923.00,0.3644
3922.00,0.3643
3921.00,0.3643
3920.00,0.3643
3919.00,0.3643
3918.00,0.3643
3917.00,0.3643
3916.00,0.3643
3915.00,0.3642
3914.00,0.3641
3913.00,0.3639
3912.00,0.3638
3911.00,0.3637
3910.00,0.3636
3909.00,0.3635
3908.00,0.3634
3907.00,0.3634
3906.00,0.3633
3905.00,0.3633
3904.00,0.3633
3903.00,0.3633
3902.00,0.3633
3901.00,0.3632
3900.00,0.3631
3899.00,0.3630
3898.00,0.3628
3897.00,0.3626
3896.00,0.3624
3895.00,0.3622
3894.00,0.3620
3893.00,0.3618
3892.00,0.3616
3891.00,0.3614
3890.00,0.3613
3889.00,0.3611
3888.00,0.3610
3887.00,0.3609
3886.00,0.3608
3885.00,0.3607
3884.00,0.3606
3883.00,0.3605
3882.00,0.3604
3881.00,0.3604
3880.00,0.3604
3879.00,0.3604
3878.00,0.3603
3877.00,0.3603
3876.00,0.3603
3875.00,0.3603
3874.00,0.3603
3873.00,0.3604
3872.00,0.3604
3871.00,0.3603
3870.00,0.3603
3869.00,0.3602
3868.00,0.3601
3867.00,0.3600
3866.00,0.3598
3865.00,0.3596
3864.00,0.3594
3863.00,0.3592
3862.00,0.3589
3861.00,0.3588
3860.00,0.3587
3859.00,0.3587
3858.00,0.3588
3857.00,0.3587
3856.00,0.3586
3855.00,0.3585
3854.00,0.3584
3853.00,0.3584
3852.00,0.3584
3851.00,0.3583
3850.00,0.3582
3849.00,0.3580
3848.00,0.3579
3847.00,0.3578
3846.00,0.3578
3845.00,0.3577
3844.00,0.3576
3843.00,0.3575
3842.00,0.3575
3841.00,0.3576
3840.00,0.3576
3839.00,0.3577
3838.00,0.3577
3837.00,0.3577
3836.00,0.3577
3835.00,0.3576
3834.00,0.3574
3833.00,0.3572
3832.00,0.3570
3831.00,0.3568
3830.00,0.3565
3829.00,0.3563
3828.00,0.3562
3827.00,0.3560
3826.00,0.3558
3825.00,0.3557
3824.00,0.3556
3823.00,0.3555
3822.00,0.3555
3821.00,0.3554
3820.00,0.3552
3819.00,0.3549
3818.00,0.3546
3817.00,0.3543
3816.00,0.3540
3815.00,0.3538
3814.00,0.3535
3813.00,0.3531
3812.00,0.3528
3811.00,0.3526
3810.00,0.3525
3809.00,0.3523
3808.00,0.3522
3807.00,0.3521
3806.00,0.3520
3805.00,0.3520
3804.00,0.3520
3803.00,0.3520
3802.00,0.3519
3801.00,0.3519
3800.00,0.3517
3799.00,0.3515
3798.00,0.3513
3797.00,0.3511
3796.00,0.3509
3795.00,0.3507
3794.00,0.3505
3793.00,0.3503
3792.00,0.3500
3791.00,0.3498
3790.00,0.3496
3789.00,0.3494
3788.00,0.3492
3787.00,0.3491
3786.00,0.3490
3785.00,0.3490
3784.00,0.3490
3783.00,0.3490
3782.00,0.3490
3781.00,0.3491
3780.00,0.3491
3779.00,0.3490
3778.00,0.3489
3777.00,0.3489
3776.00,0.3488
3775.00,0.3489
3774.00,0.3489
3773.00,0.3490
3772.00,0.3490
3771.00,0.3490
3770.00,0.3490
3769.00,0.3490
3768.00,0.3490
3767.00,0.3489
3766.00,0.3488
3765.00,0.3488
3764.00,0.3488
3763.00,0.3487
3762.00,0.3486
3761.00,0.3486
3760.00,0.3486
3759.00,0.3485
3758.00,0.3484
3757.00,0.3482
3756.00,0.3481
3755.00,0.3479
3754.00,0.3479
3753.00,0.3478
3752.00,0.3478
3751.00,0.3477
3750.00,0.3478
3749.00,0.3478
3748.00,0.3478
3747.00,0.3477
3746.00,0.3475
3745.00,0.3474
3744.00,0.3473
3743.00,0.3471
3742.00,0.3469
3741.00,0.3468
3740.00,0.3467
3739.00,0.3467
3738.00,0.3466
3737.00,0.3465
3736.00,0.3464
3735.00,0.3463
3734.00,0.3463
3733.00,0.3463
3732.00,0.3462
3731.00,0.3461
3730.00,0.3459
3729.00,0.3457
3728.00,0.3455
3727.00,0.3453
3726.00,0.3451
3725.00,0.3449
3724.00,0.3447
3723.00,0.3445
3722.00,0.3444
3721.00,0.3443
3720.00,0.3442
3719.00,0.3442
3718.00,0.3442
3717.00,0.3442
3716.00,0.3442
3715.00,0.3443
3714.00,0.3443
3713.00,0.3444
3712.00,0.3446
3711.00,0.3447
3710.00,0.3448
3709.00,0.3448
3708.00,0.3448
3707.00,0.3448
3706.00,0.3448
3705.00,0.3448
3704.00,0.3448
3703.00,0.3448
3702.00,0.3448
3701.00,0.3449
3700.00,0.3450
3699.00,0.3451
3698.00,0.3451
3697.00,0.3453
3696.00,0.3454
3695.00,0.3456
3694.00,0.3458
3693.00,0.3459
3692.00,0.3461
3691.00,0.3462
3690.00,0.3463
3689.00,0.3464
3688.00,0.3465
3687.00,0.3465
3686.00,0.3465
3685.00,0.3465
3684.00,0.3464
3683.00,0.3464
3682.00,0.3463
3681.00,0.3463
3680.00,0.3462
3679.00,0.3462
3678.00,0.3462
3677.00,0.3462
3676.00,0.3462
3675.00,0.3463
3674.00,0.3464
3673.00,0.3464
3672.00,0.3465
3671.00,0.3466
3670.00,0.3466
3669.00,0.3466
3668.00,0.3465
3667.00,0.3464
3666.00,0.3463
3665.00,0.3463
3664.00,0.3464
3663.00,0.3464
3662.00,0.3465
3661.00,0.3468
3660.00,0.3470
3659.00,0.3474
3658.00,0.3477
3657.00,0.3480
3656.00,0.3484
3655.00,0.3487
3654.00,0.3491
3653.00,0.3495
3652.00,0.3499
3651.00,0.3504
3650.00,0.3508
3649.00,0.3511
3648.00,0.3513
3647.00,0.3516
3646.00,0.3518
3645.00,0.3520
3644.00,0.3522
3643.00,0.3524
3642.00,0.3527
3641.00,0.3531
3640.00,0.3535
3639.00,0.3540
3638.00,0.3546
3637.00,0.3552
3636.00,0.3557
3635.00,0.3563
3634.00,0.3569
3633.00,0.3576
3632.00,0.3583
3631.00,0.3592
3630.00,0.3604
3629.00,0.3620
3628.00,0.3637
3627.00,0.3652
3626.00,0.3663
3625.00,0.3670
3624.00,0.3673
3623.00,0.3670
3622.00,0.3663
3621.00,0.3651
3620.00,0.3636
3619.00,0.3620
3618.00,0.3606
3617.00,0.3595
3616.00,0.3586
3615.00,0.3581
3614.00,0.3577
3613.00,0.3575
3612.00,0.3574
3611.00,0.3574
3610.00,0.3576
3609.00,0.3578
3608.00,0.3580
3607.00,0.3581
3606.00,0.3581
3605.00,0.3580
3604.00,0.3577
3603.00,0.3572
3602.00,0.3565
3601.00,0.3557
3600.00,0.3547
3599.00,0.3536
3598.00,0.3526
3597.00,0.3516
3596.00,0.3506
3595.00,0.3496
3594.00,0.3486
3593.00,0.3478
3592.00,0.3471
3591.00,0.3465
3590.00,0.3461
3589.00,0.3457
3588.00,0.3452
3587.00,0.3448
3586.00,0.3443
3585.00,0.3439
3584.00,0.3436
3583.00,0.3433
3582.00,0.3430
3581.00,0.3427
3580.00,0.3424
3579.00,0.3421
3578.00,0.3419
3577.00,0.3417
3576.00,0.3416
3575.00,0.3414
3574.00,0.3414
3573.00,0.3414
3572.00,0.3414
3571.00,0.3415
3570.00,0.3416
3569.00,0.3417
3568.00,0.3419
3567.00,0.3420
3566.00,0.3421
3565.00,0.3421
3564.00,0.3422
3563.00,0.3423
3562.00,0.3424
3561.00,0.3426
3560.00,0.3428
3559.00,0.3429
3558.00,0.3431
3557.00,0.3433
3556.00,0.3435
3555.00,0.3439
3554.00,0.3442
3553.00,0.3447
3552.00,0.3451
3551.00,0.3454
3550.00,0.3459
3549.00,0.3463
3548.00,0.3468
3547.00,0.3473
3546.00,0.3478
3545.00,0.3483
3544.00,0.3489
3543.00,0.3495
3542.00,0.3500
3541.00,0.3504
3540.00,0.3509
3539.00,0.3514
3538.00,0.3519
3537.00,0.3524
3536.00,0.3530
3535.00,0.3535
3534.00,0.3540
3533.00,0.3546
3532.00,0.3552
3531.00,0.3558
3530.00,0.3565
3529.00,0.3572
3528.00,0.3578
3527.00,0.3585
3526.00,0.3592
3525.00,0.3599
3524.00,0.3606
3523.00,0.3613
3522.00,0.3621
3521.00,0.3628
3520.00,0.3636
3519.00,0.3644
3518.00,0.3652
3517.00,0.3659
3516.00,0.3667
3515.00,0.3675
3514.00,0.3683
3513.00,0.3692
3512.00,0.3700
3511.00,0.3708
3510.00,0.3717
3509.00,0.3726
3508.00,0.3735
3507.00,0.3744
3506.00,0.3753
3505.00,0.3762
3504.00,0.3770
3503.00,0.3779
3502.00,0.3788
3501.00,0.3797
3500.00,0.3806
3499.00,0.3816
3498.00,0.3825
3497.00,0.3834
3496.00,0.3844
3495.00,0.3854
3494.00,0.3864
3493.00,0.3873
3492.00,0.3883
3491.00,0.3894
3490.00,0.3905
3489.00,0.3916
3488.00,0.3928
3487.00,0.3941
3486.00,0.3953
3485.00,0.3965
3484.00,0.3978
3483.00,0.3990
3482.00,0.4003
3481.00,0.4017
3480.00,0.4030
3479.00,0.4042
3478.00,0.4055
3477.00,0.4068
3476.00,0.4081
3475.00,0.4095
3474.00,0.4108
3473.00,0.4122
3472.00,0.4136
3471.00,0.4150
3470.00,0.4165
3469.00,0.4180
3468.00,0.4196
3467.00,0.4210
3466.00,0.4225
3465.00,0.4240
3464.00,0.4256
3463.00,0.4272
3462.00,0.4288
3461.00,0.4305
3460.00,0.4322
3459.00,0.4339
3458.00,0.4357
3457.00,0.4376
3456.00,0.4395
3455.00,0.4415
3454.00,0.4434
3453.00,0.4454
3452.00,0.4475
3451.00,0.4497
3450.00,0.4521
3449.00,0.4546
3448.00,0.4572
3447.00,0.4599
3446.00,0.4627
3445.00,0.4657
3444.00,0.4688
3443.00,0.4719
3442.00,0.4751
3441.00,0.4781
3440.00,0.4810
3439.00,0.4837
3438.00,0.4864
3437.00,0.4890
3436.00,0.4915
3435.00,0.4939
3434.00,0.4961
3433.00,0.4981
3432.00,0.5000
3431.00,0.5019
3430.00,0.5036
3429.00,0.5053
3428.00,0.5071
3427.00,0.5089
3426.00,0.5107
3425.00,0.5124
3424.00,0.5143
3423.00,0.5161
3422.00,0.5180
3421.00,0.5199
3420.00,0.5218
3419.00,0.5237
3418.00,0.5258
3417.00,0.5279
3416.00,0.5301
3415.00,0.5323
3414.00,0.5346
3413.00,0.5369
3412.00,0.5393
3411.00,0.5417
3410.00,0.5441
3409.00,0.5466
3408.00,0.5491
3407.00,0.5516
3406.00,0.5542
3405.00,0.5568
3404.00,0.5594
3403.00,0.5620
3402.00,0.5646
3401.00,0.5673
3400.00,0.5700
3399.00,0.5727
3398.00,0.5754
3397.00,0.5781
3396.00,0.5808
3395.00,0.5836
3394.00,0.5864
3393.00,0.5892
3392.00,0.5920
3391.00,0.5948
3390.00,0.5977
3389.00,0.6007
3388.00,0.6038
3387.00,0.6069
3386.00,0.6100
3385.00,0.6131
3384.00,0.6161
3383.00,0.6191
3382.00,0.6221
3381.00,0.6253
3380.00,0.6285
3379.00,0.6318
3378.00,0.6350
3377.00,0.6384
3376.00,0.6417
3375.00,0.6451
3374.00,0.6485
3373.00,0.6519
3372.00,0.6553
3371.00,0.6587
3370.00,0.6621
3369.00,0.6654
3368.00,0.6688
3367.00,0.6721
3366.00,0.6754
3365.00,0.6786
3364.00,0.6819
3363.00,0.6850
3362.00,0.6882
3361.00,0.6912
3360.00,0.6942
3359.00,0.6971
3358.00,0.6999
3357.00,0.7027
3356.00,0.7054
3355.00,0.7081
3354.00,0.7106
3353.00,0.7130
3352.00,0.7153
3351.00,0.7176
3350.00,0.7198
3349.00,0.7217
3348.00,0.7233
3347.00,0.7247
3346.00,0.7260
3345.00,0.7272
3344.00,0.7285
3343.00,0.7297
3342.00,0.7307
3341.00,0.7314
3340.00,0.7319
3339.00,0.7322
3338.00,0.7323
3337.00,0.7324
3336.00,0.7322
3335.00,0.7318
3334.00,0.7313
3333.00,0.7306
3332.00,0.7299
3331.00,0.7291
3330.00,0.7282
3329.00,0.7272
3328.00,0.7261
3327.00,0.7249
3326.00,0.7235
3325.00,0.7221
3324.00,0.7205
3323.00,0.7189
3322.00,0.7173
3321.00,0.7157
3320.00,0.7141
3319.00,0.7125
3318.00,0.7108
3317.00,0.7092
3316.00,0.7077
3315.00,0.7063
3314.00,0.7049
3313.00,0.7035
3312.00,0.7020
3311.00,0.7007
3310.00,0.6994
3309.00,0.6983
3308.00,0.6972
3307.00,0.6961
3306.00,0.6951
3305.00,0.6942
3304.00,0.6934
3303.00,0.6926
3302.00,0.6919
3301.00,0.6912
3300.00,0.6907
3299.00,0.6902
3298.00,0.6898
3297.00,0.6895
3296.00,0.6893
3295.00,0.6891
3294.00,0.6888
3293.00,0.6887
3292.00,0.6886
3291.00,0.6887
3290.00,0.6889
3289.00,0.6890
3288.00,0.6891
3287.00,0.6892
3286.00,0.6894
3285.00,0.6897
3284.00,0.6901
3283.00,0.6904
3282.00,0.6907
3281.00,0.6911
3280.00,0.6917
3279.00,0.6923
3278.00,0.6929
3277.00,0.6933
3276.00,0.6937
3275.00,0.6940
3274.00,0.6944
3273.00,0.6948
3272.00,0.6952
3271.00,0.6956
3270.00,0.6961
3269.00,0.6965
3268.00,0.6967
3267.00,0.6967
3266.00,0.6967
3265.00,0.6968
3264.00,0.6969
3263.00,0.6969
3262.00,0.6969
3261.00,0.6968
3260.00,0.6965
3259.00,0.6962
3258.00,0.6958
3257.00,0.6952
3256.00,0.6946
3255.00,0.6940
3254.00,0.6933
3253.00,0.6925
3252.00,0.6917
3251.00,0.6907
3250.00,0.6894
3249.00,0.6881
3248.00,0.6867
3247.00,0.6854
3246.00,0.6840
3245.00,0.6825
3244.00,0.6810
3243.00,0.6794
3242.00,0.6777
3241.00,0.6761
3240.00,0.6744
3239.00,0.6726
3238.00,0.6706
3237.00,0.6686
3236.00,0.6664
3235.00,0.6643
3234.00,0.6623
3233.00,0.6602
3232.00,0.6580
3231.00,0.6558
3230.00,0.6536
3229.00,0.6514
3228.00,0.6492
3227.00,0.6468
3226.00,0.6444
3225.00,0.6420
3224.00,0.6396
3223.00,0.6373
3222.00,0.6350
3221.00,0.6327
3220.00,0.6303
3219.00,0.6279
3218.00,0.6256
3217.00,0.6233
3216.00,0.6211
3215.00,0.6188
3214.00,0.6166
3213.00,0.6143
3212.00,0.6120
3211.00,0.6096
3210.00,0.6072
3209.00,0.6049
3208.00,0.6027
3207.00,0.6006
3206.00,0.5985
3205.00,0.5965
3204.00,0.5944
3203.00,0.5922
3202.00,0.5902
3201.00,0.5882
3200.00,0.5863
3199.00,0.5844
3198.00,0.5824
3197.00,0.5804
3196.00,0.5784
3195.00,0.5764
3194.00,0.5745
3193.00,0.5726
3192.00,0.5706
3191.00,0.5687
3190.00,0.5667
3189.00,0.5646
3188.00,0.5624
3187.00,0.5603
3186.00,0.5582
3185.00,0.5562
3184.00,0.5542
3183.00,0.5522
3182.00,0.5502
3181.00,0.5482
3180.00,0.5462
3179.00,0.5443
3178.00,0.5423
3177.00,0.5403
3176.00,0.5383
3175.00,0.5363
3174.00,0.5344
3173.00,0.5326
3172.00,0.5309
3171.00,0.5291
3170.00,0.5273
3169.00,0.5255
3168.00,0.5238
3167.00,0.5220
3166.00,0.5203
3165.00,0.5187
3164.00,0.5170
3163.00,0.5154
3162.00,0.5139
3161.00,0.5125
3160.00,0.5111
3159.00,0.5096
3158.00,0.5082
3157.00,0.5069
3156.00,0.5055
3155.00,0.5042
3154.00,0.5029
3153.00,0.5016
3152.00,0.5004
3151.00,0.4991
3150.00,0.4979
3149.00,0.4968
3148.00,0.4955
3147.00,0.4943
3146.00,0.4931
3145.00,0.4919
3144.00,0.4907
3143.00,0.4896
3142.00,0.4885
3141.00,0.4874
3140.00,0.4864
3139.00,0.4855
3138.00,0.4845
3137.00,0.4837
3136.00,0.4828
3135.00,0.4820
3134.00,0.4812
3133.00,0.4804
3132.00,0.4796
3131.00,0.4788
3130.00,0.4781
3129.00,0.4774
3128.00,0.4768
3127.00,0.4763
3126.00,0.4758
3125.00,0.4753
3124.00,0.4748
3123.00,0.4744
3122.00,0.4739
3121.00,0.4735
3120.00,0.4731
3119.00,0.4729
3118.00,0.4728
3117.00,0.4726
3116.00,0.4726
3115.00,0.4725
3114.00,0.4724
3113.00,0.4725
3112.00,0.4727
3111.00,0.4729
3110.00,0.4733
3109.00,0.4737
3108.00,0.4742
3107.00,0.4746
3106.00,0.4751
3105.00,0.4757
3104.00,0.4764
3103.00,0.4771
3102.00,0.4778
3101.00,0.4785
3100.00,0.4792
3099.00,0.4799
3098.00,0.4807
3097.00,0.4814
3096.00,0.4821
3095.00,0.4829
3094.00,0.4836
3093.00,0.4844
3092.00,0.4852
3091.00,0.4860
3090.00,0.4869
3089.00,0.4879
3088.00,0.4889
3087.00,0.4899
3086.00,0.4910
3085.00,0.4922
3084.00,0.4934
3083.00,0.4947
3082.00,0.4961
3081.00,0.4976
3080.00,0.4992
3079.00,0.5009
3078.00,0.5028
3077.00,0.5047
3076.00,0.5068
3075.00,0.5090
3074.00,0.5114
3073.00,0.5139
3072.00,0.5165
3071.00,0.5193
3070.00,0.5221
3069.00,0.5252
3068.00,0.5284
3067.00,0.5317
3066.00,0.5351
3065.00,0.5386
3064.00,0.5421
3063.00,0.5456
3062.00,0.5492
3061.00,0.5529
3060.00,0.5566
3059.00,0.5601
3058.00,0.5635
3057.00,0.5669
3056.00,0.5702
3055.00,0.5735
3054.00,0.5766
3053.00,0.5797
3052.00,0.5826
3051.00,0.5854
3050.00,0.5882
3049.00,0.5909
3048.00,0.5937
3047.00,0.5965
3046.00,0.5996
3045.00,0.6029
3044.00,0.6064
3043.00,0.6102
3042.00,0.6141
3041.00,0.6181
3040.00,0.6222
3039.00,0.6265
3038.00,0.6311
3037.00,0.6361
3036.00,0.6414
3035.00,0.6469
3034.00,0.6526
3033.00,0.6584
3032.00,0.6642
3031.00,0.6702
3030.00,0.6762
3029.00,0.6821
3028.00,0.6880
3027.00,0.6939
3026.00,0.6999
3025.00,0.7061
3024.00,0.7124
3023.00,0.7189
3022.00,0.7255
3021.00,0.7323
3020.00,0.7394
3019.00,0.7468
3018.00,0.7546
3017.00,0.7627
3016.00,0.7713
3015.00,0.7802
3014.00,0.7897
3013.00,0.7998
3012.00,0.8105
3011.00,0.8218
3010.00,0.8337
3009.00,0.8461
3008.00,0.8591
3007.00,0.8729
3006.00,0.8875
3005.00,0.9029
3004.00,0.9192
3003.00,0.9365
3002.00,0.9547
3001.00,0.9739
3000.00,0.9942
2999.00,1.0159
2998.00,1.0389
2997.00,1.0634
2996.00,1.0894
2995.00,1.1173
2994.00,1.1473
2993.00,1.1796
2992.00,1.2142
2991.00,1.2514
2990.00,1.2915
2989.00,1.3350
2988.00,1.3825
2987.00,1.4346
2986.00,1.4921
2985.00,1.5553
2984.00,1.6245
2983.00,1.7009
2982.00,1.7856
2981.00,1.8801
2980.00,1.9853
2979.00,2.1023
2978.00,2.2321
2977.00,2.3739
2976.00,2.5252
2975.00,2.6853
2974.00,2.8572
2973.00,3.0447
2972.00,3.2453
2971.00,3.4516
2970.00,3.6622
2969.00,3.8954
2968.00,4.1882
2967.00,4.5315
2966.00,4.6071
2965.00,4.3718
2964.00,4.1684
2963.00,4.0452
2962.00,3.9956
2961.00,4.0035
2960.00,4.1013
2959.00,4.2763
2958.00,4.3057
2957.00,4.1108
2956.00,3.9566
2955.00,3.9219
2954.00,4.0614
2953.00,4.4005
2952.00,4.4669
2951.00,4.3005
2950.00,4.2260
2949.00,4.2646
2948.00,4.1965
2947.00,4.0987
2946.00,4.1387
2945.00,4.1956
2944.00,4.2837
2943.00,4.5650
2942.00,4.5682
2941.00,4.1044
2940.00,3.8442
2939.00,3.7938
2938.00,3.8764
2937.00,3.9613
2936.00,3.9552
2935.00,3.8925
2934.00,3.8629
2933.00,3.8853
2932.00,3.9714
2931.00,4.0838
2930.00,4.0752
2929.00,3.9805
2928.00,3.9081
2927.00,3.8759
2926.00,3.8405
2925.00,3.7942
2924.00,3.8134
2923.00,3.9025
2922.00,4.1303
2921.00,4.5913
2920.00,4.7039
2919.00,4.4690
2918.00,4.2404
2917.00,4.1399
2916.00,4.1104
2915.00,4.0520
2914.00,4.1555
2913.00,4.4579
2912.00,4.2998
2911.00,4.0588
2910.00,3.9151
2909.00,3.9836
2908.00,4.0390
2907.00,3.9375
2906.00,3.8839
2905.00,3.8708
2904.00,3.9318
2903.00,4.0995
2902.00,4.4804
2901.00,4.5993
2900.00,4.2124
2899.00,3.9194
2898.00,3.8245
2897.00,3.8062
2896.00,3.9140
2895.00,4.2874
2894.00,4.3102
2893.00,4.0966
2892.00,3.9602
2891.00,4.0700
2890.00,4.1838
2889.00,4.2569
2888.00,4.6156
2887.00,4.5369
2886.00,4.3027
2885.00,4.1408
2884.00,4.1462
2883.00,4.2008
2882.00,4.4076
2881.00,4.8639
2880.00,4.5249
2879.00,4.1928
2878.00,4.0520
2877.00,4.0235
2876.00,4.0241
2875.00,4.1209
2874.00,4.1583
2873.00,3.9864
2872.00,3.8576
2871.00,3.8897
2870.00,4.0837
2869.00,4.1505
2868.00,4.0215
2867.00,3.9296
2866.00,3.9661
2865.00,4.1078
2864.00,4.1939
2863.00,4.1673
2862.00,4.0891
2861.00,4.0387
2860.00,4.0838
2859.00,4.1863
2858.00,4.2228
2857.00,4.2524
2856.00,4.3340
2855.00,4.2347
2854.00,4.1235
2853.00,4.2667
2852.00,4.3466
2851.00,4.0322
2850.00,3.8251
2849.00,3.8840
2848.00,4.1289
2847.00,4.2999
2846.00,4.3364
2845.00,4.3352
2844.00,4.3913
2843.00,4.3551
2842.00,4.1106
2841.00,3.8511
2840.00,3.6405
2839.00,3.4462
2838.00,3.2342
2837.00,3.0017
2836.00,2.7787
2835.00,2.5839
2834.00,2.4160
2833.00,2.2683
2832.00,2.1369
2831.00,2.0206
2830.00,1.9179
2829.00,1.8267
2828.00,1.7451
2827.00,1.6717
2826.00,1.6056
2825.00,1.5456
2824.00,1.4911
2823.00,1.4414
2822.00,1.3957
2821.00,1.3535
2820.00,1.3144
2819.00,1.2783
2818.00,1.2449
2817.00,1.2139
2816.00,1.1849
2815.00,1.1578
2814.00,1.1321
2813.00,1.1079
2812.00,1.0850
2811.00,1.0631
2810.00,1.0420
2809.00,1.0216
2808.00,1.0018
2807.00,0.9827
2806.00,0.9639
2805.00,0.9456
2804.00,0.9278
2803.00,0.9107
2802.00,0.8942
2801.00,0.8783
2800.00,0.8630
2799.00,0.8483
2798.00,0.8342
2797.00,0.8207
2796.00,0.8076
2795.00,0.7952
2794.00,0.7834
2793.00,0.7722
2792.00,0.7617
2791.00,0.7518
2790.00,0.7424
2789.00,0.7334
2788.00,0.7247
2787.00,0.7161
2786.00,0.7077
2785.00,0.6993
2784.00,0.6910
2783.00,0.6828
2782.00,0.6747
2781.00,0.6667
2780.00,0.6589
2779.00,0.6513
2778.00,0.6440
2777.00,0.6369
2776.00,0.6302
2775.00,0.6237
2774.00,0.6176
2773.00,0.6120
2772.00,0.6069
2771.00,0.6022
2770.00,0.5979
2769.00,0.5940
2768.00,0.5904
2767.00,0.5872
2766.00,0.5844
2765.00,0.5818
2764.00,0.5796
2763.00,0.5776
2762.00,0.5758
2761.00,0.5743
2760.00,0.5730
2759.00,0.5720
2758.00,0.5712
2757.00,0.5707
2756.00,0.5704
2755.00,0.5702
2754.00,0.5702
2753.00,0.5704
2752.00,0.5708
2751.00,0.5714
2750.00,0.5723
2749.00,0.5734
2748.00,0.5746
2747.00,0.5760
2746.00,0.5774
2745.00,0.5790
2744.00,0.5808
2743.00,0.5826
2742.00,0.5847
2741.00,0.5872
2740.00,0.5899
2739.00,0.5932
2738.00,0.5969
2737.00,0.6012
2736.00,0.6059
2735.00,0.6110
2734.00,0.6160
2733.00,0.6206
2732.00,0.6241
2731.00,0.6261
2730.00,0.6261
2729.00,0.6240
2728.00,0.6202
2727.00,0.6151
2726.00,0.6094
2725.00,0.6037
2724.00,0.5983
2723.00,0.5934
2722.00,0.5894
2721.00,0.5860
2720.00,0.5834
2719.00,0.5812
2718.00,0.5794
2717.00,0.5777
2716.00,0.5759
2715.00,0.5737
2714.00,0.5713
2713.00,0.5687
2712.00,0.5660
2711.00,0.5633
2710.00,0.5607
2709.00,0.5582
2708.00,0.5560
2707.00,0.5539
2706.00,0.5522
2705.00,0.5507
2704.00,0.5494
2703.00,0.5482
2702.00,0.5473
2701.00,0.5466
2700.00,0.5461
2699.00,0.5458
2698.00,0.5458
2697.00,0.5461
2696.00,0.5467
2695.00,0.5475
2694.00,0.5485
2693.00,0.5497
2692.00,0.5509
2691.00,0.5521
2690.00,0.5533
2689.00,0.5545
2688.00,0.5556
2687.00,0.5566
2686.00,0.5574
2685.00,0.5580
2684.00,0.5585
2683.00,0.5589
2682.00,0.5593
2681.00,0.5598
2680.00,0.5602
2679.00,0.5607
2678.00,0.5611
2677.00,0.5616
2676.00,0.5620
2675.00,0.5625
2674.00,0.5628
2673.00,0.5631
2672.00,0.5631
2671.00,0.5629
2670.00,0.5625
