Created as New Dataset,
cm-1,A
4000.00,0.4056
3999.00,0.4054
3998.00,0.4052
3997.00,0.4050
3996.00,0.4047
3995.00,0.4044
3994.00,0.4040
3993.00,0.4036
3992.00,0.4033
3991.00,0.4029
3990.00,0.4025
3989.00,0.4021
3988.00,0.4016
3987.00,0.4011
3986.00,0.4006
3985.00,0.4000
3984.00,0.3995
3983.00,0.3990
3982.00,0.3985
3981.00,0.3981
3980.00,0.3976
3979.00,0.3972
3978.00,0.3968
3977.00,0.3963
3976.00,0.3959
3975.00,0.3954
3974.00,0.3951
3973.00,0.3948
3972.00,0.3945
3971.00,0.3941
3970.00,0.3936
3969.00,0.3932
3968.00,0.3928
3967.00,0.3924
3966.00,0.3920
3965.00,0.3917
3964.00,0.3913
3963.00,0.3909
3962.00,0.3905
3961.00,0.3902
3960.00,0.3899
3959.00,0.3896
3958.00,0.3893
3957.00,0.3889
3956.00,0.3886
3955.00,0.3883
3954.00,0.3880
3953.00,0.3877
3952.00,0.3874
3951.00,0.3871
3950.00,0.3868
3949.00,0.3866
3948.00,0.3863
3947.00,0.3860
3946.00,0.3858
3945.00,0.3856
3944.00,0.3854
3943.00,0.3853
3942.00,0.3851
3941.00,0.3850
3940.00,0.3848
3939.00,0.3847
3938.00,0.3846
3937.00,0.3844
3936.00,0.3843
3935.00,0.3841
3934.00,0.3840
3933.00,0.3839
3932.00,0.3839
3931.00,0.3839
3930.00,0.3838
3929.00,0.3838
3928.00,0.3837
3927.00,0.3836
3926.00,0.3836
3925.00,0.3835
3924.00,0.3834
3923.00,0.3833
3922.00,0.3833
3921.00,0.3832
3920.00,0.3831
3919.00,0.3830
3918.00,0.3829
3917.00,0.3828
3916.00,0.3828
3915.00,0.3827
3914.00,0.3826
3913.00,0.3825
3912.00,0.3823
3911.00,0.3822
3910.00,0.3820
3909.00,0.3819
3908.00,0.3817
3907.00,0.3814
3906.00,0.3812
3905.00,0.3809
3904.00,0.3806
3903.00,0.3804
3902.00,0.3802
3901.00,0.3800
3900.00,0.3800
3899.00,0.3799
3898.00,0.3800
3897.00,0.3800
3896.00,0.3799
3895.00,0.3797
3894.00,0.3796
3893.00,0.3795
3892.00,0.3793
3891.00,0.3791
3890.00,0.3789
3889.00,0.3788
3888.00,0.3787
3887.00,0.3786
3886.00,0.3784
3885.00,0.3782
3884.00,0.3781
3883.00,0.3780
3882.00,0.3779
3881.00,0.3776
3880.00,0.3773
3879.00,0.3772
3878.00,0.3772
3877.00,0.3771
3876.00,0.3770
3875.00,0.3767
3874.00,0.3765
3873.00,0.3763
3872.00,0.3761
3871.00,0.3759
3870.00,0.3756
3869.00,0.3753
3868.00,0.3752
3867.00,0.3753
3866.00,0.3752
3865.00,0.3750
3864.00,0.3748
3863.00,0.3747
3862.00,0.3747
3861.00,0.3747
3860.00,0.3745
3859.00,0.3745
3858.00,0.3744
3857.00,0.3745
3856.00,0.3746
3855.00,0.3747
3854.00,0.3747
3853.00,0.3745
3852.00,0.3745
3851.00,0.3747
3850.00,0.3748
3849.00,0.3745
3848.00,0.3743
3847.00,0.3742
3846.00,0.3743
3845.00,0.3742
3844.00,0.3741
3843.00,0.3739
3842.00,0.3737
3841.00,0.3735
3840.00,0.3733
3839.00,0.3732
3838.00,0.3730
3837.00,0.3728
3836.00,0.3728
3835.00,0.3727
3834.00,0.3727
3833.00,0.3727
3832.00,0.3726
3831.00,0.3726
3830.00,0.3726
3829.00,0.3725
3828.00,0.3724
3827.00,0.3723
3826.00,0.3721
3825.00,0.3719
3824.00,0.3718
3823.00,0.3718
3822.00,0.3716
3821.00,0.3713
3820.00,0.3710
3819.00,0.3710
3818.00,0.3710
3817.00,0.3710
3816.00,0.3709
3815.00,0.3707
3814.00,0.3708
3813.00,0.3708
3812.00,0.3707
3811.00,0.3705
3810.00,0.3705
3809.00,0.3705
3808.00,0.3705
3807.00,0.3702
3806.00,0.3698
3805.00,0.3695
3804.00,0.3693
3803.00,0.3691
3802.00,0.3688
3801.00,0.3685
3800.00,0.3683
3799.00,0.3683
3798.00,0.3682
3797.00,0.3680
3796.00,0.3677
3795.00,0.3677
3794.00,0.3677
3793.00,0.3676
3792.00,0.3675
3791.00,0.3674
3790.00,0.3672
3789.00,0.3671
3788.00,0.3670
3787.00,0.3668
3786.00,0.3666
3785.00,0.3664
3784.00,0.3663
3783.00,0.3661
3782.00,0.3659
3781.00,0.3658
3780.00,0.3656
3779.00,0.3655
3778.00,0.3654
3777.00,0.3655
3776.00,0.3656
3775.00,0.3656
3774.00,0.3655
3773.00,0.3656
3772.00,0.3656
3771.00,0.3656
3770.00,0.3655
3769.00,0.3654
3768.00,0.3652
3767.00,0.3652
3766.00,0.3651
3765.00,0.3650
3764.00,0.3650
3763.00,0.3651
3762.00,0.3651
3761.00,0.3650
3760.00,0.3649
3759.00,0.3647
3758.00,0.3645
3757.00,0.3644
3756.00,0.3643
3755.00,0.3641
3754.00,0.3640
3753.00,0.3640
3752.00,0.3638
3751.00,0.3637
3750.00,0.3634
3749.00,0.3632
3748.00,0.3631
3747.00,0.3631
3746.00,0.3632
3745.00,0.3632
3744.00,0.3633
3743.00,0.3634
3742.00,0.3637
3741.00,0.3637
3740.00,0.3634
3739.00,0.3631
3738.00,0.3630
3737.00,0.3631
3736.00,0.3630
3735.00,0.3629
3734.00,0.3629
3733.00,0.3631
3732.00,0.3634
3731.00,0.3636
3730.00,0.3638
3729.00,0.3640
3728.00,0.3642
3727.00,0.3642
3726.00,0.3643
3725.00,0.3644
3724.00,0.3646
3723.00,0.3649
3722.00,0.3651
3721.00,0.3654
3720.00,0.3659
3719.00,0.3664
3718.00,0.3670
3717.00,0.3676
3716.00,0.3682
3715.00,0.3690
3714.00,0.3698
3713.00,0.3709
3712.00,0.3721
3711.00,0.3735
3710.00,0.3751
3709.00,0.3769
3708.00,0.3789
3707.00,0.3810
3706.00,0.3833
3705.00,0.3857
3704.00,0.3882
3703.00,0.3909
3702.00,0.3937
3701.00,0.3964
3700.00,0.3990
3699.00,0.4013
3698.00,0.4035
3697.00,0.4055
3696.00,0.4074
3695.00,0.4092
3694.00,0.4108
3693.00,0.4124
3692.00,0.4140
3691.00,0.4158
3690.00,0.4178
3689.00,0.4201
3688.00,0.4225
3687.00,0.4249
3686.00,0.4274
3685.00,0.4299
3684.00,0.4324
3683.00,0.4351
3682.00,0.4379
3681.00,0.4408
3680.00,0.4436
3679.00,0.4463
3678.00,0.4491
3677.00,0.4523
3676.00,0.4558
3675.00,0.4592
3674.00,0.4623
3673.00,0.4653
3672.00,0.4685
3671.00,0.4719
3670.00,0.4756
3669.00,0.4795
3668.00,0.4833
3667.00,0.4870
3666.00,0.4906
3665.00,0.4943
3664.00,0.4984
3663.00,0.5026
3662.00,0.5070
3661.00,0.5114
3660.00,0.5159
3659.00,0.5206
3658.00,0.5257
3657.00,0.5312
3656.00,0.5368
3655.00,0.5421
3654.00,0.5470
3653.00,0.5519
3652.00,0.5571
3651.00,0.5630
3650.00,0.5695
3649.00,0.5765
3648.00,0.5837
3647.00,0.5906
3646.00,0.5971
3645.00,0.6032
3644.00,0.6092
3643.00,0.6152
3642.00,0.6211
3641.00,0.6269
3640.00,0.6325
3639.00,0.6378
3638.00,0.6426
3637.00,0.6471
3636.00,0.6512
3635.00,0.6549
3634.00,0.6583
3633.00,0.6612
3632.00,0.6638
3631.00,0.6662
3630.00,0.6682
3629.00,0.6696
3628.00,0.6704
3627.00,0.6708
3626.00,0.6708
3625.00,0.6702
3624.00,0.6691
3623.00,0.6676
3622.00,0.6655
3621.00,0.6622
3620.00,0.6576
3619.00,0.6517
3618.00,0.6454
3617.00,0.6392
3616.00,0.6331
3615.00,0.6268
3614.00,0.6201
3613.00,0.6133
3612.00,0.6066
3611.00,0.5998
3610.00,0.5930
3609.00,0.5860
3608.00,0.5792
3607.00,0.5727
3606.00,0.5667
3605.00,0.5612
3604.00,0.5559
3603.00,0.5508
3602.00,0.5458
3601.00,0.5408
3600.00,0.5358
3599.00,0.5311
3598.00,0.5267
3597.00,0.5225
3596.00,0.5185
3595.00,0.5146
3594.00,0.5109
3593.00,0.5076
3592.00,0.5046
3591.00,0.5018
3590.00,0.4990
3589.00,0.4962
3588.00,0.4933
3587.00,0.4906
3586.00,0.4882
3585.00,0.4861
3584.00,0.4843
3583.00,0.4826
3582.00,0.4810
3581.00,0.4795
3580.00,0.4781
3579.00,0.4768
3578.00,0.4756
3577.00,0.4745
3576.00,0.4735
3575.00,0.4726
3574.00,0.4718
3573.00,0.4710
3572.00,0.4703
3571.00,0.4697
3570.00,0.4691
3569.00,0.4685
3568.00,0.4679
3567.00,0.4674
3566.00,0.4670
3565.00,0.4668
3564.00,0.4666
3563.00,0.4664
3562.00,0.4663
3561.00,0.4662
3560.00,0.4662
3559.00,0.4663
3558.00,0.4663
3557.00,0.4664
3556.00,0.4664
3555.00,0.4665
3554.00,0.4666
3553.00,0.4668
3552.00,0.4669
3551.00,0.4672
3550.00,0.4675
3549.00,0.4678
3548.00,0.4682
3547.00,0.4687
3546.00,0.4692
3545.00,0.4698
3544.00,0.4705
3543.00,0.4712
3542.00,0.4719
3541.00,0.4725
3540.00,0.4732
3539.00,0.4739
3538.00,0.4746
3537.00,0.4754
3536.00,0.4763
3535.00,0.4772
3534.00,0.4781
3533.00,0.4790
3532.00,0.4799
3531.00,0.4808
3530.00,0.4818
3529.00,0.4828
3528.00,0.4838
3527.00,0.4848
3526.00,0.4859
3525.00,0.4870
3524.00,0.4882
3523.00,0.4895
3522.00,0.4908
3521.00,0.4920
3520.00,0.4931
3519.00,0.4942
3518.00,0.4953
3517.00,0.4965
3516.00,0.4977
3515.00,0.4989
3514.00,0.5000
3513.00,0.5011
3512.00,0.5022
3511.00,0.5032
3510.00,0.5043
3509.00,0.5054
3508.00,0.5064
3507.00,0.5074
3506.00,0.5085
3505.00,0.5095
3504.00,0.5106
3503.00,0.5117
3502.00,0.5128
3501.00,0.5140
3500.00,0.5151
3499.00,0.5164
3498.00,0.5176
3497.00,0.5189
3496.00,0.5202
3495.00,0.5216
3494.00,0.5230
3493.00,0.5244
3492.00,0.5257
3491.00,0.5272
3490.00,0.5286
3489.00,0.5301
3488.00,0.5317
3487.00,0.5332
3486.00,0.5348
3485.00,0.5365
3484.00,0.5383
3483.00,0.5400
3482.00,0.5418
3481.00,0.5437
3480.00,0.5456
3479.00,0.5475
3478.00,0.5495
3477.00,0.5516
3476.00,0.5536
3475.00,0.5557
3474.00,0.5578
3473.00,0.5599
3472.00,0.5622
3471.00,0.5644
3470.00,0.5667
3469.00,0.5690
3468.00,0.5714
3467.00,0.5737
3466.00,0.5760
3465.00,0.5783
3464.00,0.5807
3463.00,0.5830
3462.00,0.5855
3461.00,0.5879
3460.00,0.5905
3459.00,0.5931
3458.00,0.5957
3457.00,0.5984
3456.00,0.6012
3455.00,0.6040
3454.00,0.6068
3453.00,0.6096
3452.00,0.6124
3451.00,0.6152
3450.00,0.6182
3449.00,0.6214
3448.00,0.6247
3447.00,0.6281
3446.00,0.6315
3445.00,0.6350
3444.00,0.6386
3443.00,0.6422
3442.00,0.6457
3441.00,0.6493
3440.00,0.6528
3439.00,0.6563
3438.00,0.6597
3437.00,0.6630
3436.00,0.6662
3435.00,0.6693
3434.00,0.6723
3433.00,0.6752
3432.00,0.6782
3431.00,0.6811
3430.00,0.6840
3429.00,0.6869
3428.00,0.6898
3427.00,0.6926
3426.00,0.6954
3425.00,0.6984
3424.00,0.7014
3423.00,0.7044
3422.00,0.7074
3421.00,0.7103
3420.00,0.7133
3419.00,0.7164
3418.00,0.7197
3417.00,0.7231
3416.00,0.7266
3415.00,0.7300
3414.00,0.7333
3413.00,0.7366
3412.00,0.7400
3411.00,0.7433
3410.00,0.7467
3409.00,0.7500
3408.00,0.7533
3407.00,0.7565
3406.00,0.7598
3405.00,0.7632
3404.00,0.7666
3403.00,0.7700
3402.00,0.7734
3401.00,0.7768
3400.00,0.7802
3399.00,0.7835
3398.00,0.7869
3397.00,0.7903
3396.00,0.7936
3395.00,0.7969
3394.00,0.8001
3393.00,0.8033
3392.00,0.8066
3391.00,0.8100
3390.00,0.8134
3389.00,0.8168
3388.00,0.8201
3387.00,0.8235
3386.00,0.8268
3385.00,0.8302
3384.00,0.8335
3383.00,0.8366
3382.00,0.8397
3381.00,0.8428
3380.00,0.8459
3379.00,0.8491
3378.00,0.8524
3377.00,0.8558
3376.00,0.8592
3375.00,0.8625
3374.00,0.8658
3373.00,0.8690
3372.00,0.8721
3371.00,0.8754
3370.00,0.8786
3369.00,0.8820
3368.00,0.8854
3367.00,0.8889
3366.00,0.8924
3365.00,0.8960
3364.00,0.8996
3363.00,0.9031
3362.00,0.9067
3361.00,0.9103
3360.00,0.9139
3359.00,0.9174
3358.00,0.9211
3357.00,0.9247
3356.00,0.9284
3355.00,0.9320
3354.00,0.9356
3353.00,0.9393
3352.00,0.9429
3351.00,0.9466
3350.00,0.9503
3349.00,0.9540
3348.00,0.9578
3347.00,0.9614
3346.00,0.9649
3345.00,0.9683
3344.00,0.9718
3343.00,0.9752
3342.00,0.9785
3341.00,0.9817
3340.00,0.9849
3339.00,0.9880
3338.00,0.9911
3337.00,0.9943
3336.00,0.9973
3335.00,1.0001
3334.00,1.0027
3333.00,1.0050
3332.00,1.0071
3331.00,1.0091
3330.00,1.0110
3329.00,1.0128
3328.00,1.0144
3327.00,1.0159
3326.00,1.0172
3325.00,1.0184
3324.00,1.0193
3323.00,1.0200
3322.00,1.0206
3321.00,1.0209
3320.00,1.0210
3319.00,1.0209
3318.00,1.0206
3317.00,1.0203
3316.00,1.0197
3315.00,1.0188
3314.00,1.0175
3313.00,1.0162
3312.00,1.0146
3311.00,1.0129
3310.00,1.0110
3309.00,1.0089
3308.00,1.0065
3307.00,1.0039
3306.00,1.0010
3305.00,0.9981
3304.00,0.9951
3303.00,0.9920
3302.00,0.9889
3301.00,0.9858
3300.00,0.9826
3299.00,0.9793
3298.00,0.9759
3297.00,0.9724
3296.00,0.9687
3295.00,0.9651
3294.00,0.9616
3293.00,0.9581
3292.00,0.9546
3291.00,0.9511
3290.00,0.9475
3289.00,0.9440
3288.00,0.9405
3287.00,0.9369
3286.00,0.9335
3285.00,0.9301
3284.00,0.9269
3283.00,0.9237
3282.00,0.9205
3281.00,0.9174
3280.00,0.9142
3279.00,0.9111
3278.00,0.9079
3277.00,0.9049
3276.00,0.9019
3275.00,0.8991
3274.00,0.8963
3273.00,0.8935
3272.00,0.8906
3271.00,0.8877
3270.00,0.8849
3269.00,0.8820
3268.00,0.8791
3267.00,0.8762
3266.00,0.8735
3265.00,0.8708
3264.00,0.8681
3263.00,0.8654
3262.00,0.8628
3261.00,0.8602
3260.00,0.8578
3259.00,0.8552
3258.00,0.8526
3257.00,0.8500
3256.00,0.8473
3255.00,0.8447
3254.00,0.8422
3253.00,0.8396
3252.00,0.8371
3251.00,0.8347
3250.00,0.8323
3249.00,0.8299
3248.00,0.8274
3247.00,0.8249
3246.00,0.8224
3245.00,0.8200
3244.00,0.8176
3243.00,0.8153
3242.00,0.8130
3241.00,0.8107
3240.00,0.8084
3239.00,0.8060
3238.00,0.8037
3237.00,0.8015
3236.00,0.7993
3235.00,0.7972
3234.00,0.7951
3233.00,0.7931
3232.00,0.7912
3231.00,0.7893
3230.00,0.7873
3229.00,0.7853
3228.00,0.7833
3227.00,0.7814
3226.00,0.7798
3225.00,0.7783
3224.00,0.7768
3223.00,0.7753
3222.00,0.7738
3221.00,0.7723
3220.00,0.7707
3219.00,0.7693
3218.00,0.7679
3217.00,0.7665
3216.00,0.7652
3215.00,0.7637
3214.00,0.7623
3213.00,0.7609
3212.00,0.7596
3211.00,0.7582
3210.00,0.7568
3209.00,0.7554
3208.00,0.7541
3207.00,0.7528
3206.00,0.7516
3205.00,0.7504
3204.00,0.7492
3203.00,0.7481
3202.00,0.7469
3201.00,0.7457
3200.00,0.7444
3199.00,0.7431
3198.00,0.7417
3197.00,0.7403
3196.00,0.7389
3195.00,0.7375
3194.00,0.7361
3193.00,0.7348
3192.00,0.7334
3191.00,0.7319
3190.00,0.7303
3189.00,0.7287
3188.00,0.7271
3187.00,0.7255
3186.00,0.7239
3185.00,0.7223
3184.00,0.7206
3183.00,0.7190
3182.00,0.7174
3181.00,0.7157
3180.00,0.7138
3179.00,0.7120
3178.00,0.7101
3177.00,0.7083
3176.00,0.7065
3175.00,0.7047
3174.00,0.7028
3173.00,0.7010
3172.00,0.6992
3171.00,0.6974
3170.00,0.6956
3169.00,0.6939
3168.00,0.6922
3167.00,0.6906
3166.00,0.6889
3165.00,0.6873
3164.00,0.6856
3163.00,0.6839
3162.00,0.6822
3161.00,0.6805
3160.00,0.6789
3159.00,0.6773
3158.00,0.6756
3157.00,0.6740
3156.00,0.6724
3155.00,0.6709
3154.00,0.6694
3153.00,0.6680
3152.00,0.6666
3151.00,0.6652
3150.00,0.6638
3149.00,0.6624
3148.00,0.6609
3147.00,0.6595
3146.00,0.6581
3145.00,0.6568
3144.00,0.6556
3143.00,0.6543
3142.00,0.6531
3141.00,0.6518
3140.00,0.6506
3139.00,0.6494
3138.00,0.6483
3137.00,0.6472
3136.00,0.6460
3135.00,0.6448
3134.00,0.6437
3133.00,0.6428
3132.00,0.6419
3131.00,0.6410
3130.00,0.6402
3129.00,0.6393
3128.00,0.6385
3127.00,0.6377
3126.00,0.6369
3125.00,0.6361
3124.00,0.6353
3123.00,0.6346
3122.00,0.6338
3121.00,0.6331
3120.00,0.6324
3119.00,0.6318
3118.00,0.6312
3117.00,0.6308
3116.00,0.6303
3115.00,0.6299
3114.00,0.6296
3113.00,0.6294
3112.00,0.6292
3111.00,0.6290
3110.00,0.6289
3109.00,0.6288
3108.00,0.6287
3107.00,0.6287
3106.00,0.6287
3105.00,0.6288
3104.00,0.6289
3103.00,0.6292
3102.00,0.6295
3101.00,0.6298
3100.00,0.6301
3099.00,0.6304
3098.00,0.6308
3097.00,0.6313
3096.00,0.6318
3095.00,0.6322
3094.00,0.6326
3093.00,0.6329
3092.00,0.6333
3091.00,0.6337
3090.00,0.6342
3089.00,0.6348
3088.00,0.6355
3087.00,0.6362
3086.00,0.6370
3085.00,0.6379
3084.00,0.6388
3083.00,0.6398
3082.00,0.6409
3081.00,0.6421
3080.00,0.6434
3079.00,0.6449
3078.00,0.6464
3077.00,0.6481
3076.00,0.6500
3075.00,0.6521
3074.00,0.6542
3073.00,0.6565
3072.00,0.6589
3071.00,0.6616
3070.00,0.6644
3069.00,0.6673
3068.00,0.6704
3067.00,0.6735
3066.00,0.6767
3065.00,0.6798
3064.00,0.6828
3063.00,0.6858
3062.00,0.6889
3061.00,0.6920
3060.00,0.6950
3059.00,0.6979
3058.00,0.7008
3057.00,0.7036
3056.00,0.7063
3055.00,0.7089
3054.00,0.7114
3053.00,0.7139
3052.00,0.7163
3051.00,0.7187
3050.00,0.7210
3049.00,0.7233
3048.00,0.7254
3047.00,0.7276
3046.00,0.7299
3045.00,0.7325
3044.00,0.7354
3043.00,0.7384
3042.00,0.7417
3041.00,0.7451
3040.00,0.7488
3039.00,0.7527
3038.00,0.7567
3037.00,0.7609
3036.00,0.7652
3035.00,0.7697
3034.00,0.7742
3033.00,0.7789
3032.00,0.7836
3031.00,0.7885
3030.00,0.7935
3029.00,0.7987
3028.00,0.8041
3027.00,0.8096
3026.00,0.8154
3025.00,0.8213
3024.00,0.8275
3023.00,0.8339
3022.00,0.8406
3021.00,0.8475
3020.00,0.8547
3019.00,0.8623
3018.00,0.8704
3017.00,0.8790
3016.00,0.8880
3015.00,0.8975
3014.00,0.9074
3013.00,0.9177
3012.00,0.9286
3011.00,0.9403
3010.00,0.9527
3009.00,0.9660
3008.00,0.9799
3007.00,0.9946
3006.00,1.0100
3005.00,1.0262
3004.00,1.0431
3003.00,1.0608
3002.00,1.0796
3001.00,1.0996
3000.00,1.1207
2999.00,1.1433
2998.00,1.1674
2997.00,1.1932
2996.00,1.2205
2995.00,1.2496
2994.00,1.2809
2993.00,1.3149
2992.00,1.3520
2991.00,1.3924
2990.00,1.4365
2989.00,1.4848
2988.00,1.5375
2987.00,1.5949
2986.00,1.6579
2985.00,1.7269
2984.00,1.8024
2983.00,1.8851
2982.00,1.9762
2981.00,2.0769
2980.00,2.1887
2979.00,2.3126
2978.00,2.4495
2977.00,2.5997
2976.00,2.7633
2975.00,2.9400
2974.00,3.1264
2973.00,3.3091
2972.00,3.4681
2971.00,3.5992
2970.00,3.7093
2969.00,3.8117
2968.00,3.9369
2967.00,4.1264
2966.00,4.3348
2965.00,4.3226
2964.00,4.2550
2963.00,4.2322
2962.00,4.2304
2961.00,4.1333
2960.00,4.0644
2959.00,4.1334
2958.00,4.3745
2957.00,4.5260
2956.00,4.2988
2955.00,4.1308
2954.00,4.0902
2953.00,4.0516
2952.00,3.9512
2951.00,3.8853
2950.00,3.9289
2949.00,4.0914
2948.00,4.2008
2947.00,4.0716
2946.00,3.9815
2945.00,4.0957
2944.00,4.3510
2943.00,4.2794
2942.00,4.1515
2941.00,4.1255
2940.00,4.1682
2939.00,4.1306
2938.00,4.1623
2937.00,4.2074
2936.00,4.1900
2935.00,4.2644
2934.00,4.2834
2933.00,4.2244
2932.00,4.1925
2931.00,4.1457
2930.00,3.9977
2929.00,3.8619
2928.00,3.8844
2927.00,4.0913
2926.00,4.5559
2925.00,4.5989
2924.00,4.2973
2923.00,4.0634
2922.00,4.0205
2921.00,3.9724
2920.00,3.9297
2919.00,3.9791
2918.00,4.1383
2917.00,4.4135
2916.00,4.2966
2915.00,4.0515
2914.00,3.9259
2913.00,3.9847
2912.00,4.0842
2911.00,4.0881
2910.00,4.0392
2909.00,3.9684
2908.00,3.9107
2907.00,3.9186
2906.00,4.0157
2905.00,4.1532
2904.00,4.2646
2903.00,4.4167
2902.00,4.7528
2901.00,4.5349
2900.00,4.2769
2899.00,4.0577
2898.00,4.0385
2897.00,4.1115
2896.00,4.2395
2895.00,4.1683
2894.00,3.9231
2893.00,3.7669
2892.00,3.7455
2891.00,3.8727
2890.00,4.1917
2889.00,4.3479
2888.00,4.2664
2887.00,4.1952
2886.00,4.3123
2885.00,4.3898
2884.00,4.3771
2883.00,4.3967
2882.00,4.4294
2881.00,4.5206
2880.00,4.3259
2879.00,4.1713
2878.00,4.1044
2877.00,4.2627
2876.00,4.4472
2875.00,4.2291
2874.00,3.9915
2873.00,3.8830
2872.00,3.9901
2871.00,4.3168
2870.00,4.2981
2869.00,4.1001
2868.00,3.9709
2867.00,4.0470
2866.00,4.0967
2865.00,3.9724
2864.00,3.8118
2863.00,3.7218
2862.00,3.7523
2861.00,3.8562
2860.00,3.9183
2859.00,3.9109
2858.00,3.9379
2857.00,4.0864
2856.00,4.3360
2855.00,4.3769
2854.00,4.1501
2853.00,3.9386
2852.00,3.8282
2851.00,3.8128
2850.00,3.8873
2849.00,4.0334
2848.00,4.1681
2847.00,4.1633
2846.00,4.0699
2845.00,3.9827
2844.00,3.8891
2843.00,3.7556
2842.00,3.5630
2841.00,3.3212
2840.00,3.0644
2839.00,2.8247
2838.00,2.6140
2837.00,2.4328
2836.00,2.2794
2835.00,2.1499
2834.00,2.0391
2833.00,1.9420
2832.00,1.8558
2831.00,1.7790
2830.00,1.7104
2829.00,1.6485
2828.00,1.5919
2827.00,1.5400
2826.00,1.4920
2825.00,1.4474
2824.00,1.4060
2823.00,1.3672
2822.00,1.3309
2821.00,1.2967
2820.00,1.2644
2819.00,1.2340
2818.00,1.2055
2817.00,1.1785
2816.00,1.1531
2815.00,1.1290
2814.00,1.1062
2813.00,1.0847
2812.00,1.0642
2811.00,1.0448
2810.00,1.0263
2809.00,1.0086
2808.00,0.9915
2807.00,0.9750
2806.00,0.9590
2805.00,0.9437
2804.00,0.9290
2803.00,0.9149
2802.00,0.9012
2801.00,0.8879
2800.00,0.8749
2799.00,0.8624
2798.00,0.8505
2797.00,0.8390
2796.00,0.8279
2795.00,0.8171
2794.00,0.8068
2793.00,0.7969
2792.00,0.7875
2791.00,0.7785
2790.00,0.7698
2789.00,0.7612
2788.00,0.7528
2787.00,0.7445
2786.00,0.7362
2785.00,0.7279
2784.00,0.7196
2783.00,0.7113
2782.00,0.7031
2781.00,0.6951
2780.00,0.6874
2779.00,0.6799
2778.00,0.6727
2777.00,0.6659
2776.00,0.6594
2775.00,0.6535
2774.00,0.6481
2773.00,0.6431
2772.00,0.6383
2771.00,0.6338
2770.00,0.6295
2769.00,0.6256
2768.00,0.6220
2767.00,0.6188
2766.00,0.6159
2765.00,0.6133
2764.00,0.6109
2763.00,0.6087
2762.00,0.6067
2761.00,0.6050
2760.00,0.6034
2759.00,0.6021
2758.00,0.6009
2757.00,0.5999
2756.00,0.5991
2755.00,0.5985
2754.00,0.5980
